Time, V_g(t), V_g(0), V_g(t)/V_g(0)
0.002500, 0.065986, 0.065986, 100.000000
0.005000, 0.065993, 0.065986, 100.010773
0.007500, 0.065995, 0.065986, 100.012989
0.010000, 0.065995, 0.065986, 100.013492
0.012500, 0.065995, 0.065986, 100.013319
0.015000, 0.065995, 0.065986, 100.012748
0.017500, 0.065994, 0.065986, 100.012056
0.020000, 0.065994, 0.065986, 100.011352
0.022500, 0.065993, 0.065986, 100.010575
0.025000, 0.065993, 0.065986, 100.009707
0.027500, 0.065992, 0.065986, 100.008881
0.030000, 0.065991, 0.065986, 100.007868
0.032500, 0.065991, 0.065986, 100.006935
0.035000, 0.065990, 0.065986, 100.005868
0.037500, 0.065989, 0.065986, 100.004636
0.040000, 0.065989, 0.065986, 100.003489
0.042500, 0.065988, 0.065986, 100.002413
0.045000, 0.065987, 0.065986, 100.000867
0.047500, 0.065986, 0.065986, 99.999465
0.050000, 0.065985, 0.065986, 99.998114
0.052500, 0.065984, 0.065986, 99.996672
0.055000, 0.065983, 0.065986, 99.995113
0.057500, 0.065982, 0.065986, 99.993681
0.060000, 0.065981, 0.065986, 99.992225
0.062500, 0.065980, 0.065986, 99.990776
0.065000, 0.065979, 0.065986, 99.989284
0.067500, 0.065978, 0.065986, 99.987835
0.070000, 0.065977, 0.065986, 99.986363
0.072500, 0.065976, 0.065986, 99.984931
0.075000, 0.065975, 0.065986, 99.983526
0.077500, 0.065974, 0.065986, 99.982142
0.080000, 0.065974, 0.065986, 99.980782
0.082500, 0.065973, 0.065986, 99.979449
0.085000, 0.065972, 0.065986, 99.978146
0.087500, 0.065971, 0.065986, 99.976876
0.090000, 0.065970, 0.065986, 99.975642
0.092500, 0.065969, 0.065986, 99.974441
0.095000, 0.065969, 0.065986, 99.973289
0.097500, 0.065968, 0.065986, 99.972137
0.100000, 0.065967, 0.065986, 99.971089
0.102500, 0.065966, 0.065986, 99.970054
0.105000, 0.065966, 0.065986, 99.969092
0.107500, 0.065965, 0.065986, 99.968178
0.110000, 0.065965, 0.065986, 99.967307
0.112500, 0.065964, 0.065986, 99.966473
0.115000, 0.065964, 0.065986, 99.965764
0.117500, 0.065963, 0.065986, 99.965044
0.120000, 0.065963, 0.065986, 99.964392
0.122500, 0.065962, 0.065986, 99.963837
0.125000, 0.065962, 0.065986, 99.963335
0.127500, 0.065962, 0.065986, 99.962890
0.130000, 0.065961, 0.065986, 99.962492
0.132500, 0.065961, 0.065986, 99.962114
0.135000, 0.065961, 0.065986, 99.961768
0.137500, 0.065961, 0.065986, 99.961452
0.140000, 0.065961, 0.065986, 99.961171
0.142500, 0.065960, 0.065986, 99.960925
0.145000, 0.065960, 0.065986, 99.960717
0.147500, 0.065960, 0.065986, 99.960545
0.150000, 0.065960, 0.065986, 99.960388
0.152500, 0.065960, 0.065986, 99.960291
0.155000, 0.065960, 0.065986, 99.960216
0.157500, 0.065960, 0.065986, 99.960138
0.160000, 0.065960, 0.065986, 99.960010
0.162500, 0.065960, 0.065986, 99.959868
0.165000, 0.065960, 0.065986, 99.959712
0.167500, 0.065960, 0.065986, 99.959529
0.170000, 0.065959, 0.065986, 99.959296
0.172500, 0.065959, 0.065986, 99.959013
0.175000, 0.065959, 0.065986, 99.958699
0.177500, 0.065959, 0.065986, 99.958317
0.180000, 0.065958, 0.065986, 99.957892
0.182500, 0.065958, 0.065986, 99.957434
0.185000, 0.065958, 0.065986, 99.956932
0.187500, 0.065957, 0.065986, 99.956378
0.190000, 0.065957, 0.065986, 99.955757
0.192500, 0.065957, 0.065986, 99.955094
0.195000, 0.065956, 0.065986, 99.954389
0.197500, 0.065956, 0.065986, 99.953650
0.200000, 0.065955, 0.065986, 99.952875
0.202500, 0.065955, 0.065986, 99.952078
0.205000, 0.065954, 0.065986, 99.951286
0.207500, 0.065954, 0.065986, 99.950499
0.210000, 0.065953, 0.065986, 99.949733
0.212500, 0.065953, 0.065986, 99.949003
0.215000, 0.065952, 0.065986, 99.948328
0.217500, 0.065952, 0.065986, 99.947733
0.220000, 0.065951, 0.065986, 99.947236
0.222500, 0.065951, 0.065986, 99.946834
0.225000, 0.065951, 0.065986, 99.946488
0.227500, 0.065951, 0.065986, 99.946190
0.230000, 0.065951, 0.065986, 99.945949
0.232500, 0.065950, 0.065986, 99.945755
0.235000, 0.065950, 0.065986, 99.945585
0.237500, 0.065950, 0.065986, 99.945443
0.240000, 0.065950, 0.065986, 99.945340
0.242500, 0.065950, 0.065986, 99.945288
0.245000, 0.065950, 0.065986, 99.945248
0.247500, 0.065950, 0.065986, 99.945207
0.250000, 0.065950, 0.065986, 99.945167
0.252500, 0.065950, 0.065986, 99.945141
0.255000, 0.065950, 0.065986, 99.945141
0.257500, 0.065950, 0.065986, 99.945182
0.260000, 0.065950, 0.065986, 99.945273
0.262500, 0.065950, 0.065986, 99.945406
0.265000, 0.065950, 0.065986, 99.945544
0.267500, 0.065950, 0.065986, 99.945699
0.270000, 0.065951, 0.065986, 99.945894
0.272500, 0.065951, 0.065986, 99.946152
0.275000, 0.065951, 0.065986, 99.946499
0.277500, 0.065951, 0.065986, 99.946961
0.280000, 0.065952, 0.065986, 99.947565
0.282500, 0.065952, 0.065986, 99.948340
0.285000, 0.065953, 0.065986, 99.949266
0.287500, 0.065953, 0.065986, 99.950298
0.290000, 0.065954, 0.065986, 99.951447
0.292500, 0.065955, 0.065986, 99.952676
0.295000, 0.065956, 0.065986, 99.953952
0.297500, 0.065957, 0.065986, 99.955352
0.300000, 0.065958, 0.065986, 99.956839
0.302500, 0.065959, 0.065986, 99.958314
0.305000, 0.065960, 0.065986, 99.959762
0.307500, 0.065961, 0.065986, 99.961168
0.310000, 0.065962, 0.065986, 99.962515
0.312500, 0.065962, 0.065986, 99.963811
0.315000, 0.065963, 0.065986, 99.965058
0.317500, 0.065964, 0.065986, 99.966216
0.320000, 0.065965, 0.065986, 99.967183
0.322500, 0.065965, 0.065986, 99.967924
0.325000, 0.065965, 0.065986, 99.968432
0.327500, 0.065966, 0.065986, 99.968705
0.330000, 0.065966, 0.065986, 99.968738
0.332500, 0.065965, 0.065986, 99.968554
0.335000, 0.065965, 0.065986, 99.968181
0.337500, 0.065965, 0.065986, 99.967636
0.340000, 0.065964, 0.065986, 99.966908
0.342500, 0.065964, 0.065986, 99.966009
0.345000, 0.065963, 0.065986, 99.964956
0.347500, 0.065962, 0.065986, 99.963774
0.350000, 0.065961, 0.065986, 99.962489
0.352500, 0.065961, 0.065986, 99.961134
0.355000, 0.065960, 0.065986, 99.959747
0.357500, 0.065959, 0.065986, 99.958274
0.360000, 0.065958, 0.065986, 99.956710
0.362500, 0.065957, 0.065986, 99.955067
0.365000, 0.065955, 0.065986, 99.953372
0.367500, 0.065954, 0.065986, 99.951667
0.370000, 0.065953, 0.065986, 99.949991
0.372500, 0.065952, 0.065986, 99.948379
0.375000, 0.065951, 0.065986, 99.946845
0.377500, 0.065950, 0.065986, 99.945400
0.380000, 0.065949, 0.065986, 99.944034
0.382500, 0.065948, 0.065986, 99.942797
0.385000, 0.065948, 0.065986, 99.941717
0.387500, 0.065947, 0.065986, 99.940791
0.390000, 0.065947, 0.065986, 99.940036
0.392500, 0.065946, 0.065986, 99.939468
0.395000, 0.065946, 0.065986, 99.939069
0.397500, 0.065946, 0.065986, 99.938801
0.400000, 0.065946, 0.065986, 99.938637
0.402500, 0.065946, 0.065986, 99.938579
0.405000, 0.065946, 0.065986, 99.938691
0.407500, 0.065946, 0.065986, 99.939037
0.410000, 0.065946, 0.065986, 99.939642
0.412500, 0.065947, 0.065986, 99.940492
0.415000, 0.065948, 0.065986, 99.941505
0.417500, 0.065948, 0.065986, 99.942664
0.420000, 0.065949, 0.065986, 99.943912
0.422500, 0.065950, 0.065986, 99.945162
0.425000, 0.065951, 0.065986, 99.946444
0.427500, 0.065952, 0.065986, 99.947806
0.430000, 0.065953, 0.065986, 99.949256
0.432500, 0.065954, 0.065986, 99.950800
0.435000, 0.065955, 0.065986, 99.952427
0.437500, 0.065956, 0.065986, 99.954125
0.440000, 0.065957, 0.065986, 99.955956
0.442500, 0.065959, 0.065986, 99.957976
0.445000, 0.065960, 0.065986, 99.960154
0.447500, 0.065961, 0.065986, 99.962382
0.450000, 0.065963, 0.065986, 99.964575
0.452500, 0.065964, 0.065986, 99.966701
0.455000, 0.065966, 0.065986, 99.968735
0.457500, 0.065967, 0.065986, 99.970675
0.460000, 0.065968, 0.065986, 99.972506
0.462500, 0.065969, 0.065986, 99.974191
0.465000, 0.065970, 0.065986, 99.975606
0.467500, 0.065971, 0.065986, 99.976637
0.470000, 0.065971, 0.065986, 99.977281
0.472500, 0.065971, 0.065986, 99.977552
0.475000, 0.065971, 0.065986, 99.977520
0.477500, 0.065971, 0.065986, 99.977222
0.480000, 0.065971, 0.065986, 99.976686
0.482500, 0.065970, 0.065986, 99.975947
0.485000, 0.065970, 0.065986, 99.975011
0.487500, 0.065969, 0.065986, 99.973847
0.490000, 0.065968, 0.065986, 99.972467
0.492500, 0.065967, 0.065986, 99.970899
0.495000, 0.065966, 0.065986, 99.969164
0.497500, 0.065965, 0.065986, 99.967277
0.500000, 0.065963, 0.065986, 99.965286
0.502500, 0.065962, 0.065986, 99.963253
0.505000, 0.065961, 0.065986, 99.961178
0.507500, 0.065959, 0.065986, 99.959065
0.510000, 0.065958, 0.065986, 99.956948
0.512500, 0.065956, 0.065986, 99.954842
0.515000, 0.065955, 0.065986, 99.952831
0.517500, 0.065954, 0.065986, 99.950920
0.520000, 0.065953, 0.065986, 99.949074
0.522500, 0.065952, 0.065986, 99.947423
0.525000, 0.065951, 0.065986, 99.945883
0.527500, 0.065950, 0.065986, 99.944531
0.530000, 0.065949, 0.065986, 99.943393
0.532500, 0.065948, 0.065986, 99.942486
0.535000, 0.065948, 0.065986, 99.941815
0.537500, 0.065948, 0.065986, 99.941373
0.540000, 0.065947, 0.065986, 99.941087
0.542500, 0.065947, 0.065986, 99.940945
0.545000, 0.065947, 0.065986, 99.941025
0.547500, 0.065947, 0.065986, 99.941272
0.550000, 0.065948, 0.065986, 99.941588
0.552500, 0.065948, 0.065986, 99.941955
0.555000, 0.065948, 0.065986, 99.942376
0.557500, 0.065949, 0.065986, 99.942926
0.560000, 0.065949, 0.065986, 99.943633
0.562500, 0.065950, 0.065986, 99.944489
0.565000, 0.065950, 0.065986, 99.945437
0.567500, 0.065951, 0.065986, 99.946438
0.570000, 0.065952, 0.065986, 99.947505
0.572500, 0.065952, 0.065986, 99.948618
0.575000, 0.065953, 0.065986, 99.949955
0.577500, 0.065954, 0.065986, 99.950942
0.580000, 0.065955, 0.065986, 99.951954
0.582500, 0.065955, 0.065986, 99.952889
0.585000, 0.065956, 0.065986, 99.953863
0.587500, 0.065956, 0.065986, 99.954859
0.590000, 0.065957, 0.065986, 99.955857
0.592500, 0.065958, 0.065986, 99.956835
0.595000, 0.065958, 0.065986, 99.957771
0.597500, 0.065959, 0.065986, 99.958737
0.600000, 0.065960, 0.065986, 99.959747
0.602500, 0.065960, 0.065986, 99.960770
0.605000, 0.065961, 0.065986, 99.961793
0.607500, 0.065962, 0.065986, 99.962815
0.610000, 0.065962, 0.065986, 99.963806
0.612500, 0.065963, 0.065986, 99.964742
0.615000, 0.065964, 0.065986, 99.965554
0.617500, 0.065964, 0.065986, 99.966145
0.620000, 0.065964, 0.065986, 99.966556
0.622500, 0.065964, 0.065986, 99.966856
0.625000, 0.065964, 0.065986, 99.967022
0.627500, 0.065964, 0.065986, 99.967031
0.630000, 0.065964, 0.065986, 99.966853
0.632500, 0.065964, 0.065986, 99.966472
0.635000, 0.065964, 0.065986, 99.965880
0.637500, 0.065963, 0.065986, 99.965112
0.640000, 0.065963, 0.065986, 99.964264
0.642500, 0.065962, 0.065986, 99.963235
0.645000, 0.065961, 0.065986, 99.962315
0.647500, 0.065961, 0.065986, 99.961322
0.650000, 0.065960, 0.065986, 99.960278
0.652500, 0.065959, 0.065986, 99.959186
0.655000, 0.065959, 0.065986, 99.958086
0.657500, 0.065958, 0.065986, 99.956938
0.660000, 0.065957, 0.065986, 99.955707
0.662500, 0.065956, 0.065986, 99.954330
0.665000, 0.065955, 0.065986, 99.952759
0.667500, 0.065954, 0.065986, 99.951083
0.670000, 0.065953, 0.065986, 99.949354
0.672500, 0.065952, 0.065986, 99.947645
0.675000, 0.065951, 0.065986, 99.945982
0.677500, 0.065950, 0.065986, 99.944373
0.680000, 0.065949, 0.065986, 99.942821
0.682500, 0.065948, 0.065986, 99.941328
0.685000, 0.065947, 0.065986, 99.939889
0.687500, 0.065946, 0.065986, 99.938516
0.690000, 0.065945, 0.065986, 99.937162
0.692500, 0.065944, 0.065986, 99.935825
0.695000, 0.065943, 0.065986, 99.934507
0.697500, 0.065942, 0.065986, 99.933208
0.700000, 0.065941, 0.065986, 99.932014
0.702500, 0.065941, 0.065986, 99.930988
0.705000, 0.065940, 0.065986, 99.930085
0.707500, 0.065940, 0.065986, 99.929247
0.710000, 0.065939, 0.065986, 99.928512
0.712500, 0.065939, 0.065986, 99.928019
0.715000, 0.065939, 0.065986, 99.927796
0.717500, 0.065939, 0.065986, 99.927829
0.720000, 0.065939, 0.065986, 99.928062
0.722500, 0.065939, 0.065986, 99.928447
0.725000, 0.065939, 0.065986, 99.928924
0.727500, 0.065940, 0.065986, 99.929469
0.730000, 0.065940, 0.065986, 99.930055
0.732500, 0.065940, 0.065986, 99.930652
0.735000, 0.065941, 0.065986, 99.931231
0.737500, 0.065941, 0.065986, 99.931857
0.740000, 0.065942, 0.065986, 99.932458
0.742500, 0.065942, 0.065986, 99.933037
0.745000, 0.065942, 0.065986, 99.933563
0.747500, 0.065943, 0.065986, 99.933991
0.750000, 0.065943, 0.065986, 99.934351
0.752500, 0.065943, 0.065986, 99.934788
0.755000, 0.065944, 0.065986, 99.935320
0.757500, 0.065944, 0.065986, 99.935929
0.760000, 0.065944, 0.065986, 99.936626
0.762500, 0.065945, 0.065986, 99.937342
0.765000, 0.065945, 0.065986, 99.938154
0.767500, 0.065946, 0.065986, 99.939002
0.770000, 0.065947, 0.065986, 99.939883
0.772500, 0.065947, 0.065986, 99.940682
0.775000, 0.065948, 0.065986, 99.941325
0.777500, 0.065948, 0.065986, 99.941783
0.780000, 0.065948, 0.065986, 99.942009
0.782500, 0.065948, 0.065986, 99.941897
0.785000, 0.065948, 0.065986, 99.941668
0.787500, 0.065947, 0.065986, 99.941127
0.790000, 0.065947, 0.065986, 99.940287
0.792500, 0.065946, 0.065986, 99.939214
0.795000, 0.065945, 0.065986, 99.937905
0.797500, 0.065944, 0.065986, 99.936370
0.800000, 0.065943, 0.065986, 99.934624
0.802500, 0.065942, 0.065986, 99.932694
0.805000, 0.065940, 0.065986, 99.930639
0.807500, 0.065939, 0.065986, 99.928513
0.810000, 0.065938, 0.065986, 99.926345
0.812500, 0.065936, 0.065986, 99.924078
0.815000, 0.065935, 0.065986, 99.921738
0.817500, 0.065933, 0.065986, 99.919462
0.820000, 0.065932, 0.065986, 99.917405
0.822500, 0.065931, 0.065986, 99.915571
0.825000, 0.065929, 0.065986, 99.913922
0.827500, 0.065928, 0.065986, 99.912465
0.830000, 0.065928, 0.065986, 99.911115
0.832500, 0.065927, 0.065986, 99.909867
0.835000, 0.065926, 0.065986, 99.908720
0.837500, 0.065925, 0.065986, 99.907603
0.840000, 0.065925, 0.065986, 99.906626
0.842500, 0.065924, 0.065986, 99.905727
0.845000, 0.065923, 0.065986, 99.904896
0.847500, 0.065923, 0.065986, 99.904114
0.850000, 0.065922, 0.065986, 99.903357
0.852500, 0.065922, 0.065986, 99.902644
0.855000, 0.065922, 0.065986, 99.901949
0.857500, 0.065921, 0.065986, 99.901423
0.860000, 0.065921, 0.065986, 99.901065
0.862500, 0.065921, 0.065986, 99.900894
0.865000, 0.065921, 0.065986, 99.900826
0.867500, 0.065921, 0.065986, 99.900913
0.870000, 0.065921, 0.065986, 99.901194
0.872500, 0.065921, 0.065986, 99.901639
0.875000, 0.065922, 0.065986, 99.902206
0.877500, 0.065922, 0.065986, 99.902854
0.880000, 0.065923, 0.065986, 99.903520
0.882500, 0.065923, 0.065986, 99.904125
0.885000, 0.065923, 0.065986, 99.904624
0.887500, 0.065924, 0.065986, 99.904980
0.890000, 0.065924, 0.065986, 99.905176
0.892500, 0.065924, 0.065986, 99.905287
0.895000, 0.065924, 0.065986, 99.905336
0.897500, 0.065924, 0.065986, 99.905318
0.900000, 0.065924, 0.065986, 99.905261
0.902500, 0.065924, 0.065986, 99.905217
0.905000, 0.065924, 0.065986, 99.905344
0.907500, 0.065924, 0.065986, 99.905785
0.910000, 0.065925, 0.065986, 99.906496
0.912500, 0.065925, 0.065986, 99.907341
0.915000, 0.065926, 0.065986, 99.908239
0.917500, 0.065926, 0.065986, 99.909245
0.920000, 0.065927, 0.065986, 99.910349
0.922500, 0.065928, 0.065986, 99.911511
0.925000, 0.065929, 0.065986, 99.912678
0.927500, 0.065929, 0.065986, 99.913783
0.930000, 0.065930, 0.065986, 99.914723
0.932500, 0.065930, 0.065986, 99.915482
0.935000, 0.065931, 0.065986, 99.916039
0.937500, 0.065931, 0.065986, 99.916357
0.940000, 0.065931, 0.065986, 99.916415
0.942500, 0.065931, 0.065986, 99.916233
0.945000, 0.065931, 0.065986, 99.915861
0.947500, 0.065930, 0.065986, 99.915269
0.950000, 0.065930, 0.065986, 99.914445
0.952500, 0.065929, 0.065986, 99.913369
0.955000, 0.065928, 0.065986, 99.912071
0.957500, 0.065927, 0.065986, 99.910649
0.960000, 0.065926, 0.065986, 99.909095
0.962500, 0.065925, 0.065986, 99.907490
0.965000, 0.065924, 0.065986, 99.905873
0.967500, 0.065923, 0.065986, 99.904232
0.970000, 0.065922, 0.065986, 99.902670
0.972500, 0.065921, 0.065986, 99.901348
0.975000, 0.065920, 0.065986, 99.900080
0.977500, 0.065920, 0.065986, 99.898941
0.980000, 0.065919, 0.065986, 99.897926
0.982500, 0.065918, 0.065986, 99.897008
0.985000, 0.065918, 0.065986, 99.896145
0.987500, 0.065917, 0.065986, 99.895312
0.990000, 0.065917, 0.065986, 99.894495
0.992500, 0.065916, 0.065986, 99.893651
0.995000, 0.065915, 0.065986, 99.892775
0.997500, 0.065915, 0.065986, 99.891860
1.000000, 0.065914, 0.065986, 99.890935
1.002500, 0.065914, 0.065986, 99.889988
1.005000, 0.065913, 0.065986, 99.888980
1.007500, 0.065912, 0.065986, 99.887882
1.010000, 0.065912, 0.065986, 99.886877
1.012500, 0.065911, 0.065986, 99.886108
1.015000, 0.065911, 0.065986, 99.885510
1.017500, 0.065910, 0.065986, 99.885058
1.020000, 0.065910, 0.065986, 99.884768
1.022500, 0.065910, 0.065986, 99.884677
1.025000, 0.065910, 0.065986, 99.884776
1.027500, 0.065910, 0.065986, 99.885012
1.030000, 0.065911, 0.065986, 99.885345
1.032500, 0.065911, 0.065986, 99.885736
1.035000, 0.065911, 0.065986, 99.886167
1.037500, 0.065911, 0.065986, 99.886572
1.040000, 0.065912, 0.065986, 99.886883
1.042500, 0.065912, 0.065986, 99.887127
1.045000, 0.065912, 0.065986, 99.887380
1.047500, 0.065912, 0.065986, 99.887719
1.050000, 0.065912, 0.065986, 99.888116
1.052500, 0.065913, 0.065986, 99.888570
1.055000, 0.065913, 0.065986, 99.889061
1.057500, 0.065913, 0.065986, 99.889639
1.060000, 0.065914, 0.065986, 99.890432
1.062500, 0.065915, 0.065986, 99.891465
1.065000, 0.065915, 0.065986, 99.892744
1.067500, 0.065916, 0.065986, 99.894285
1.070000, 0.065918, 0.065986, 99.895944
1.072500, 0.065919, 0.065986, 99.897658
1.075000, 0.065920, 0.065986, 99.899385
1.077500, 0.065921, 0.065986, 99.901029
1.080000, 0.065922, 0.065986, 99.902569
1.082500, 0.065923, 0.065986, 99.903998
1.085000, 0.065924, 0.065986, 99.905232
1.087500, 0.065924, 0.065986, 99.906245
1.090000, 0.065925, 0.065986, 99.907004
1.092500, 0.065925, 0.065986, 99.907545
1.095000, 0.065925, 0.065986, 99.907683
1.097500, 0.065925, 0.065986, 99.907609
1.100000, 0.065925, 0.065986, 99.907318
1.102500, 0.065925, 0.065986, 99.906783
1.105000, 0.065924, 0.065986, 99.906000
1.107500, 0.065924, 0.065986, 99.904960
1.110000, 0.065923, 0.065986, 99.903808
1.112500, 0.065922, 0.065986, 99.902609
1.115000, 0.065921, 0.065986, 99.901364
1.117500, 0.065920, 0.065986, 99.900086
1.120000, 0.065919, 0.065986, 99.898785
1.122500, 0.065919, 0.065986, 99.897566
1.125000, 0.065918, 0.065986, 99.896485
1.127500, 0.065917, 0.065986, 99.895534
1.130000, 0.065917, 0.065986, 99.894681
1.132500, 0.065916, 0.065986, 99.893879
1.135000, 0.065916, 0.065986, 99.893097
1.137500, 0.065915, 0.065986, 99.892329
1.140000, 0.065915, 0.065986, 99.891560
1.142500, 0.065914, 0.065986, 99.890781
1.145000, 0.065914, 0.065986, 99.889975
1.147500, 0.065913, 0.065986, 99.889113
1.150000, 0.065912, 0.065986, 99.888172
1.152500, 0.065912, 0.065986, 99.887138
1.155000, 0.065911, 0.065986, 99.885995
1.157500, 0.065910, 0.065986, 99.884736
1.160000, 0.065909, 0.065986, 99.883404
1.162500, 0.065908, 0.065986, 99.882090
1.165000, 0.065908, 0.065986, 99.880936
1.167500, 0.065907, 0.065986, 99.879915
1.170000, 0.065906, 0.065986, 99.879007
1.172500, 0.065906, 0.065986, 99.878206
1.175000, 0.065905, 0.065986, 99.877511
1.177500, 0.065905, 0.065986, 99.876985
1.180000, 0.065905, 0.065986, 99.876599
1.182500, 0.065905, 0.065986, 99.876358
1.185000, 0.065905, 0.065986, 99.876205
1.187500, 0.065905, 0.065986, 99.876134
1.190000, 0.065905, 0.065986, 99.876167
1.192500, 0.065905, 0.065986, 99.876297
1.195000, 0.065905, 0.065986, 99.876466
1.197500, 0.065905, 0.065986, 99.876598
1.200000, 0.065905, 0.065986, 99.876718
1.202500, 0.065905, 0.065986, 99.876892
1.205000, 0.065905, 0.065986, 99.877164
1.207500, 0.065905, 0.065986, 99.877474
1.210000, 0.065906, 0.065986, 99.877954
1.212500, 0.065906, 0.065986, 99.878622
1.215000, 0.065907, 0.065986, 99.879587
1.217500, 0.065908, 0.065986, 99.880902
1.220000, 0.065909, 0.065986, 99.882538
1.222500, 0.065910, 0.065986, 99.884383
1.225000, 0.065911, 0.065986, 99.886317
1.227500, 0.065913, 0.065986, 99.888253
1.230000, 0.065914, 0.065986, 99.890234
1.232500, 0.065915, 0.065986, 99.892081
1.235000, 0.065916, 0.065986, 99.893811
1.237500, 0.065917, 0.065986, 99.895403
1.240000, 0.065918, 0.065986, 99.896777
1.242500, 0.065919, 0.065986, 99.897872
1.245000, 0.065919, 0.065986, 99.898672
1.247500, 0.065920, 0.065986, 99.899154
1.250000, 0.065920, 0.065986, 99.899360
1.252500, 0.065920, 0.065986, 99.899310
1.255000, 0.065920, 0.065986, 99.898983
1.257500, 0.065919, 0.065986, 99.898374
1.260000, 0.065919, 0.065986, 99.897569
1.262500, 0.065918, 0.065986, 99.896704
1.265000, 0.065918, 0.065986, 99.895826
1.267500, 0.065917, 0.065986, 99.894918
1.270000, 0.065916, 0.065986, 99.893962
1.272500, 0.065916, 0.065986, 99.892942
1.275000, 0.065915, 0.065986, 99.891916
1.277500, 0.065914, 0.065986, 99.890993
1.280000, 0.065914, 0.065986, 99.890169
1.282500, 0.065913, 0.065986, 99.889418
1.285000, 0.065913, 0.065986, 99.888703
1.287500, 0.065912, 0.065986, 99.887975
1.290000, 0.065912, 0.065986, 99.887196
1.292500, 0.065911, 0.065986, 99.886349
1.295000, 0.065911, 0.065986, 99.885431
1.297500, 0.065910, 0.065986, 99.884440
1.300000, 0.065909, 0.065986, 99.883362
1.302500, 0.065909, 0.065986, 99.882203
1.305000, 0.065908, 0.065986, 99.880926
1.307500, 0.065907, 0.065986, 99.879507
1.310000, 0.065906, 0.065986, 99.877963
1.312500, 0.065905, 0.065986, 99.876316
1.315000, 0.065904, 0.065986, 99.874666
1.317500, 0.065902, 0.065986, 99.873086
1.320000, 0.065902, 0.065986, 99.871612
1.322500, 0.065901, 0.065986, 99.870296
1.325000, 0.065900, 0.065986, 99.869084
1.327500, 0.065899, 0.065986, 99.867937
1.330000, 0.065898, 0.065986, 99.866835
1.332500, 0.065898, 0.065986, 99.865842
1.335000, 0.065897, 0.065986, 99.865005
1.337500, 0.065897, 0.065986, 99.864346
1.340000, 0.065896, 0.065986, 99.863880
1.342500, 0.065896, 0.065986, 99.863585
1.345000, 0.065896, 0.065986, 99.863416
1.347500, 0.065896, 0.065986, 99.863333
1.350000, 0.065896, 0.065986, 99.863320
1.352500, 0.065896, 0.065986, 99.863298
1.355000, 0.065896, 0.065986, 99.863276
1.357500, 0.065896, 0.065986, 99.863442
1.360000, 0.065896, 0.065986, 99.863788
1.362500, 0.065897, 0.065986, 99.864252
1.365000, 0.065897, 0.065986, 99.864824
1.367500, 0.065898, 0.065986, 99.865589
1.370000, 0.065898, 0.065986, 99.866730
1.372500, 0.065899, 0.065986, 99.868205
1.375000, 0.065900, 0.065986, 99.869923
1.377500, 0.065902, 0.065986, 99.871790
1.380000, 0.065903, 0.065986, 99.873728
1.382500, 0.065904, 0.065986, 99.875678
1.385000, 0.065905, 0.065986, 99.877613
1.387500, 0.065907, 0.065986, 99.879475
1.390000, 0.065908, 0.065986, 99.881210
1.392500, 0.065909, 0.065986, 99.882770
1.395000, 0.065910, 0.065986, 99.884118
1.397500, 0.065910, 0.065986, 99.885179
1.400000, 0.065911, 0.065986, 99.885914
1.402500, 0.065911, 0.065986, 99.886309
1.405000, 0.065911, 0.065986, 99.886426
1.407500, 0.065911, 0.065986, 99.886327
1.410000, 0.065911, 0.065986, 99.886033
1.412500, 0.065911, 0.065986, 99.885620
1.415000, 0.065910, 0.065986, 99.885099
1.417500, 0.065910, 0.065986, 99.884534
1.420000, 0.065910, 0.065986, 99.883936
1.422500, 0.065909, 0.065986, 99.883272
1.425000, 0.065909, 0.065986, 99.882514
1.427500, 0.065908, 0.065986, 99.881661
1.430000, 0.065908, 0.065986, 99.880812
1.432500, 0.065907, 0.065986, 99.880038
1.435000, 0.065907, 0.065986, 99.879323
1.437500, 0.065906, 0.065986, 99.878638
1.440000, 0.065906, 0.065986, 99.877963
1.442500, 0.065905, 0.065986, 99.877276
1.445000, 0.065905, 0.065986, 99.876534
1.447500, 0.065904, 0.065986, 99.875728
1.450000, 0.065904, 0.065986, 99.874852
1.452500, 0.065903, 0.065986, 99.873902
1.455000, 0.065902, 0.065986, 99.872881
1.457500, 0.065902, 0.065986, 99.871745
1.460000, 0.065901, 0.065986, 99.870444
1.462500, 0.065900, 0.065986, 99.868959
1.465000, 0.065899, 0.065986, 99.867340
1.467500, 0.065898, 0.065986, 99.865604
1.470000, 0.065896, 0.065986, 99.863880
1.472500, 0.065895, 0.065986, 99.862182
1.475000, 0.065894, 0.065986, 99.860511
1.477500, 0.065893, 0.065986, 99.858920
1.480000, 0.065892, 0.065986, 99.857399
1.482500, 0.065891, 0.065986, 99.855924
1.485000, 0.065890, 0.065986, 99.854492
1.487500, 0.065889, 0.065986, 99.853151
1.490000, 0.065889, 0.065986, 99.852067
1.492500, 0.065888, 0.065986, 99.851241
1.495000, 0.065888, 0.065986, 99.850629
1.497500, 0.065887, 0.065986, 99.850226
1.500000, 0.065887, 0.065986, 99.849918
1.502500, 0.065887, 0.065986, 99.849619
1.505000, 0.065887, 0.065986, 99.849426
1.507500, 0.065887, 0.065986, 99.849390
1.510000, 0.065887, 0.065986, 99.849522
1.512500, 0.065887, 0.065986, 99.849857
1.515000, 0.065888, 0.065986, 99.850369
1.517500, 0.065888, 0.065986, 99.851005
1.520000, 0.065888, 0.065986, 99.851725
1.522500, 0.065889, 0.065986, 99.852635
1.525000, 0.065890, 0.065986, 99.853882
1.527500, 0.065891, 0.065986, 99.855425
1.530000, 0.065892, 0.065986, 99.857180
1.532500, 0.065893, 0.065986, 99.859059
1.535000, 0.065895, 0.065986, 99.861018
1.537500, 0.065896, 0.065986, 99.863040
1.540000, 0.065897, 0.065986, 99.865050
1.542500, 0.065898, 0.065986, 99.866978
1.545000, 0.065900, 0.065986, 99.868773
1.547500, 0.065901, 0.065986, 99.870395
1.550000, 0.065902, 0.065986, 99.871804
1.552500, 0.065902, 0.065986, 99.872956
1.555000, 0.065903, 0.065986, 99.873811
1.557500, 0.065903, 0.065986, 99.874456
1.560000, 0.065904, 0.065986, 99.874747
1.562500, 0.065904, 0.065986, 99.874838
1.565000, 0.065904, 0.065986, 99.874797
1.567500, 0.065904, 0.065986, 99.874663
1.570000, 0.065903, 0.065986, 99.874367
1.572500, 0.065903, 0.065986, 99.874021
1.575000, 0.065903, 0.065986, 99.873625
1.577500, 0.065903, 0.065986, 99.873160
1.580000, 0.065902, 0.065986, 99.872615
1.582500, 0.065902, 0.065986, 99.871988
1.585000, 0.065901, 0.065986, 99.871390
1.587500, 0.065901, 0.065986, 99.870881
1.590000, 0.065901, 0.065986, 99.870423
1.592500, 0.065900, 0.065986, 99.869982
1.595000, 0.065900, 0.065986, 99.869517
1.597500, 0.065900, 0.065986, 99.869000
1.600000, 0.065899, 0.065986, 99.868398
1.602500, 0.065899, 0.065986, 99.867663
1.605000, 0.065898, 0.065986, 99.866785
1.607500, 0.065898, 0.065986, 99.865757
1.610000, 0.065897, 0.065986, 99.864592
1.612500, 0.065896, 0.065986, 99.863276
1.615000, 0.065895, 0.065986, 99.861795
1.617500, 0.065894, 0.065986, 99.860133
1.620000, 0.065893, 0.065986, 99.858268
1.622500, 0.065891, 0.065986, 99.856287
1.625000, 0.065890, 0.065986, 99.854313
1.627500, 0.065889, 0.065986, 99.852342
1.630000, 0.065888, 0.065986, 99.850361
1.632500, 0.065886, 0.065986, 99.848384
1.635000, 0.065885, 0.065986, 99.846478
1.637500, 0.065884, 0.065986, 99.844642
1.640000, 0.065883, 0.065986, 99.842922
1.642500, 0.065882, 0.065986, 99.841376
1.645000, 0.065881, 0.065986, 99.840075
1.647500, 0.065880, 0.065986, 99.839062
1.650000, 0.065880, 0.065986, 99.838298
1.652500, 0.065879, 0.065986, 99.837761
1.655000, 0.065879, 0.065986, 99.837395
1.657500, 0.065879, 0.065986, 99.837225
1.660000, 0.065879, 0.065986, 99.837229
1.662500, 0.065879, 0.065986, 99.837382
1.665000, 0.065879, 0.065986, 99.837682
1.667500, 0.065879, 0.065986, 99.838133
1.670000, 0.065880, 0.065986, 99.838747
1.672500, 0.065880, 0.065986, 99.839471
1.675000, 0.065881, 0.065986, 99.840276
1.677500, 0.065881, 0.065986, 99.841219
1.680000, 0.065882, 0.065986, 99.842433
1.682500, 0.065883, 0.065986, 99.843952
1.685000, 0.065884, 0.065986, 99.845705
1.687500, 0.065886, 0.065986, 99.847601
1.690000, 0.065887, 0.065986, 99.849607
1.692500, 0.065888, 0.065986, 99.851700
1.695000, 0.065890, 0.065986, 99.853783
1.697500, 0.065891, 0.065986, 99.855782
1.700000, 0.065892, 0.065986, 99.857641
1.702500, 0.065893, 0.065986, 99.859327
1.705000, 0.065894, 0.065986, 99.860832
1.707500, 0.065895, 0.065986, 99.862170
1.710000, 0.065896, 0.065986, 99.863318
1.712500, 0.065897, 0.065986, 99.864200
1.715000, 0.065897, 0.065986, 99.864826
1.717500, 0.065897, 0.065986, 99.865287
1.720000, 0.065898, 0.065986, 99.865641
1.722500, 0.065898, 0.065986, 99.865870
1.725000, 0.065898, 0.065986, 99.865952
1.727500, 0.065898, 0.065986, 99.865916
1.730000, 0.065898, 0.065986, 99.865808
1.732500, 0.065898, 0.065986, 99.865609
1.735000, 0.065897, 0.065986, 99.865285
1.737500, 0.065897, 0.065986, 99.864839
1.740000, 0.065897, 0.065986, 99.864332
1.742500, 0.065896, 0.065986, 99.863855
1.745000, 0.065896, 0.065986, 99.863398
1.747500, 0.065896, 0.065986, 99.862920
1.750000, 0.065895, 0.065986, 99.862396
1.752500, 0.065895, 0.065986, 99.861802
1.755000, 0.065895, 0.065986, 99.861115
1.757500, 0.065894, 0.065986, 99.860313
1.760000, 0.065893, 0.065986, 99.859377
1.762500, 0.065893, 0.065986, 99.858306
1.765000, 0.065892, 0.065986, 99.857090
1.767500, 0.065891, 0.065986, 99.855709
1.770000, 0.065890, 0.065986, 99.854141
1.772500, 0.065889, 0.065986, 99.852388
1.775000, 0.065888, 0.065986, 99.850434
1.777500, 0.065886, 0.065986, 99.848319
1.780000, 0.065885, 0.065986, 99.846193
1.782500, 0.065883, 0.065986, 99.844087
1.785000, 0.065882, 0.065986, 99.841989
1.787500, 0.065881, 0.065986, 99.839875
1.790000, 0.065879, 0.065986, 99.837787
1.792500, 0.065878, 0.065986, 99.835821
1.795000, 0.065877, 0.065986, 99.834051
1.797500, 0.065876, 0.065986, 99.832471
1.800000, 0.065875, 0.065986, 99.831058
1.802500, 0.065874, 0.065986, 99.829902
1.805000, 0.065873, 0.065986, 99.829028
1.807500, 0.065873, 0.065986, 99.828401
1.810000, 0.065873, 0.065986, 99.828025
1.812500, 0.065873, 0.065986, 99.827874
1.815000, 0.065873, 0.065986, 99.827889
1.817500, 0.065873, 0.065986, 99.828043
1.820000, 0.065873, 0.065986, 99.828337
1.822500, 0.065873, 0.065986, 99.828744
1.825000, 0.065874, 0.065986, 99.829298
1.827500, 0.065874, 0.065986, 99.829986
1.830000, 0.065875, 0.065986, 99.830761
1.832500, 0.065875, 0.065986, 99.831651
1.835000, 0.065876, 0.065986, 99.832689
1.837500, 0.065877, 0.065986, 99.834015
1.840000, 0.065878, 0.065986, 99.835611
1.842500, 0.065879, 0.065986, 99.837403
1.845000, 0.065880, 0.065986, 99.839296
1.847500, 0.065882, 0.065986, 99.841294
1.850000, 0.065883, 0.065986, 99.843337
1.852500, 0.065884, 0.065986, 99.845328
1.855000, 0.065885, 0.065986, 99.847324
1.857500, 0.065887, 0.065986, 99.849182
1.860000, 0.065888, 0.065986, 99.850897
1.862500, 0.065889, 0.065986, 99.852406
1.865000, 0.065890, 0.065986, 99.853767
1.867500, 0.065890, 0.065986, 99.854895
1.870000, 0.065891, 0.065986, 99.855741
1.872500, 0.065891, 0.065986, 99.856365
1.875000, 0.065892, 0.065986, 99.856879
1.877500, 0.065892, 0.065986, 99.857283
1.880000, 0.065892, 0.065986, 99.857553
1.882500, 0.065892, 0.065986, 99.857677
1.885000, 0.065892, 0.065986, 99.857703
1.887500, 0.065892, 0.065986, 99.857646
1.890000, 0.065892, 0.065986, 99.857484
1.892500, 0.065892, 0.065986, 99.857190
1.895000, 0.065892, 0.065986, 99.856765
1.897500, 0.065891, 0.065986, 99.856325
1.900000, 0.065891, 0.065986, 99.855910
1.902500, 0.065891, 0.065986, 99.855488
1.905000, 0.065891, 0.065986, 99.855023
1.907500, 0.065890, 0.065986, 99.854464
1.910000, 0.065890, 0.065986, 99.853814
1.912500, 0.065889, 0.065986, 99.853087
1.915000, 0.065889, 0.065986, 99.852255
1.917500, 0.065888, 0.065986, 99.851293
1.920000, 0.065887, 0.065986, 99.850183
1.922500, 0.065887, 0.065986, 99.848912
1.925000, 0.065886, 0.065986, 99.847460
1.927500, 0.065885, 0.065986, 99.845823
1.930000, 0.065883, 0.065986, 99.844013
1.932500, 0.065882, 0.065986, 99.842019
1.935000, 0.065881, 0.065986, 99.839915
1.937500, 0.065879, 0.065986, 99.837811
1.940000, 0.065878, 0.065986, 99.835708
1.942500, 0.065876, 0.065986, 99.833594
1.945000, 0.065875, 0.065986, 99.831442
1.947500, 0.065874, 0.065986, 99.829326
1.950000, 0.065872, 0.065986, 99.827407
1.952500, 0.065871, 0.065986, 99.825681
1.955000, 0.065870, 0.065986, 99.824149
1.957500, 0.065869, 0.065986, 99.822789
1.960000, 0.065869, 0.065986, 99.821676
1.962500, 0.065868, 0.065986, 99.820836
1.965000, 0.065868, 0.065986, 99.820275
1.967500, 0.065867, 0.065986, 99.819995
1.970000, 0.065867, 0.065986, 99.819893
1.972500, 0.065867, 0.065986, 99.819967
1.975000, 0.065868, 0.065986, 99.820169
1.977500, 0.065868, 0.065986, 99.820533
1.980000, 0.065868, 0.065986, 99.820992
1.982500, 0.065869, 0.065986, 99.821602
1.985000, 0.065869, 0.065986, 99.822308
1.987500, 0.065870, 0.065986, 99.823102
1.990000, 0.065870, 0.065986, 99.824002
1.992500, 0.065871, 0.065986, 99.825034
1.995000, 0.065872, 0.065986, 99.826340
1.997500, 0.065873, 0.065986, 99.827888
2.000000, 0.065874, 0.065986, 99.829610
2.002500, 0.065875, 0.065986, 99.831465
2.005000, 0.065876, 0.065986, 99.833429
2.007500, 0.065878, 0.065986, 99.835439
2.010000, 0.065879, 0.065986, 99.837347
2.012500, 0.065880, 0.065986, 99.839148
2.015000, 0.065881, 0.065986, 99.840858
2.017500, 0.065882, 0.065986, 99.842526
2.020000, 0.065883, 0.065986, 99.843909
2.022500, 0.065884, 0.065986, 99.845170
2.025000, 0.065885, 0.065986, 99.846226
2.027500, 0.065885, 0.065986, 99.846972
2.030000, 0.065886, 0.065986, 99.847601
2.032500, 0.065886, 0.065986, 99.848146
2.035000, 0.065886, 0.065986, 99.848620
2.037500, 0.065887, 0.065986, 99.848984
2.040000, 0.065887, 0.065986, 99.849208
2.042500, 0.065887, 0.065986, 99.849330
2.045000, 0.065887, 0.065986, 99.849357
2.047500, 0.065887, 0.065986, 99.849287
2.050000, 0.065887, 0.065986, 99.849069
2.052500, 0.065886, 0.065986, 99.848748
2.055000, 0.065886, 0.065986, 99.848413
2.057500, 0.065886, 0.065986, 99.848104
2.060000, 0.065886, 0.065986, 99.847780
2.062500, 0.065886, 0.065986, 99.847466
2.065000, 0.065885, 0.065986, 99.847056
2.067500, 0.065885, 0.065986, 99.846546
2.070000, 0.065885, 0.065986, 99.845931
2.072500, 0.065884, 0.065986, 99.845211
2.075000, 0.065884, 0.065986, 99.844370
2.077500, 0.065883, 0.065986, 99.843365
2.080000, 0.065882, 0.065986, 99.842179
2.082500, 0.065881, 0.065986, 99.840801
2.085000, 0.065880, 0.065986, 99.839228
2.087500, 0.065879, 0.065986, 99.837445
2.090000, 0.065878, 0.065986, 99.835447
2.092500, 0.065876, 0.065986, 99.833328
2.095000, 0.065875, 0.065986, 99.831181
2.097500, 0.065873, 0.065986, 99.829019
2.100000, 0.065872, 0.065986, 99.826832
2.102500, 0.065871, 0.065986, 99.824613
2.105000, 0.065869, 0.065986, 99.822461
2.107500, 0.065868, 0.065986, 99.820530
2.110000, 0.065867, 0.065986, 99.818823
2.112500, 0.065866, 0.065986, 99.817304
2.115000, 0.065865, 0.065986, 99.815934
2.117500, 0.065864, 0.065986, 99.814758
2.120000, 0.065863, 0.065986, 99.813853
2.122500, 0.065863, 0.065986, 99.813257
2.125000, 0.065863, 0.065986, 99.812933
2.127500, 0.065863, 0.065986, 99.812830
2.130000, 0.065863, 0.065986, 99.812884
2.132500, 0.065863, 0.065986, 99.813084
2.135000, 0.065863, 0.065986, 99.813410
2.137500, 0.065863, 0.065986, 99.813809
2.140000, 0.065864, 0.065986, 99.814291
2.142500, 0.065864, 0.065986, 99.814879
2.145000, 0.065865, 0.065986, 99.815566
2.147500, 0.065865, 0.065986, 99.816373
2.150000, 0.065866, 0.065986, 99.817270
2.152500, 0.065866, 0.065986, 99.818374
2.155000, 0.065867, 0.065986, 99.819715
2.157500, 0.065868, 0.065986, 99.821248
2.160000, 0.065869, 0.065986, 99.822958
2.162500, 0.065871, 0.065986, 99.824773
2.165000, 0.065872, 0.065986, 99.826632
2.167500, 0.065873, 0.065986, 99.828476
2.170000, 0.065874, 0.065986, 99.830290
2.172500, 0.065875, 0.065986, 99.832042
2.175000, 0.065876, 0.065986, 99.833681
2.177500, 0.065877, 0.065986, 99.835167
2.180000, 0.065878, 0.065986, 99.836484
2.182500, 0.065879, 0.065986, 99.837615
2.185000, 0.065880, 0.065986, 99.838549
2.187500, 0.065880, 0.065986, 99.839368
2.190000, 0.065881, 0.065986, 99.840116
2.192500, 0.065881, 0.065986, 99.840769
2.195000, 0.065882, 0.065986, 99.841308
2.197500, 0.065882, 0.065986, 99.841705
2.200000, 0.065882, 0.065986, 99.841998
2.202500, 0.065882, 0.065986, 99.842209
2.205000, 0.065882, 0.065986, 99.842320
2.207500, 0.065882, 0.065986, 99.842316
2.210000, 0.065882, 0.065986, 99.842175
2.212500, 0.065882, 0.065986, 99.841984
2.215000, 0.065882, 0.065986, 99.841801
2.217500, 0.065882, 0.065986, 99.841598
2.220000, 0.065882, 0.065986, 99.841359
2.222500, 0.065881, 0.065986, 99.841062
2.225000, 0.065881, 0.065986, 99.840689
2.227500, 0.065881, 0.065986, 99.840221
2.230000, 0.065880, 0.065986, 99.839634
2.232500, 0.065880, 0.065986, 99.838909
2.235000, 0.065879, 0.065986, 99.838014
2.237500, 0.065879, 0.065986, 99.836938
2.240000, 0.065878, 0.065986, 99.835674
2.242500, 0.065877, 0.065986, 99.834204
2.245000, 0.065876, 0.065986, 99.832507
2.247500, 0.065874, 0.065986, 99.830578
2.250000, 0.065873, 0.065986, 99.828485
2.252500, 0.065872, 0.065986, 99.826321
2.255000, 0.065870, 0.065986, 99.824114
2.257500, 0.065869, 0.065986, 99.821871
2.260000, 0.065867, 0.065986, 99.819597
2.262500, 0.065866, 0.065986, 99.817371
2.265000, 0.065864, 0.065986, 99.815322
2.267500, 0.065863, 0.065986, 99.813516
2.270000, 0.065862, 0.065986, 99.811904
2.272500, 0.065861, 0.065986, 99.810455
2.275000, 0.065860, 0.065986, 99.809161
2.277500, 0.065860, 0.065986, 99.808124
2.280000, 0.065859, 0.065986, 99.807399
2.282500, 0.065859, 0.065986, 99.806950
2.285000, 0.065859, 0.065986, 99.806727
2.287500, 0.065859, 0.065986, 99.806673
2.290000, 0.065859, 0.065986, 99.806752
2.292500, 0.065859, 0.065986, 99.806949
2.295000, 0.065859, 0.065986, 99.807220
2.297500, 0.065859, 0.065986, 99.807533
2.300000, 0.065860, 0.065986, 99.807941
2.302500, 0.065860, 0.065986, 99.808455
2.305000, 0.065860, 0.065986, 99.809098
2.307500, 0.065861, 0.065986, 99.809831
2.310000, 0.065861, 0.065986, 99.810688
2.312500, 0.065862, 0.065986, 99.811803
2.315000, 0.065863, 0.065986, 99.813144
2.317500, 0.065864, 0.065986, 99.814692
2.320000, 0.065865, 0.065986, 99.816396
2.322500, 0.065866, 0.065986, 99.818173
2.325000, 0.065867, 0.065986, 99.819971
2.327500, 0.065869, 0.065986, 99.821779
2.330000, 0.065870, 0.065986, 99.823572
2.332500, 0.065871, 0.065986, 99.825294
2.335000, 0.065872, 0.065986, 99.826906
2.337500, 0.065873, 0.065986, 99.828388
2.340000, 0.065874, 0.065986, 99.829708
2.342500, 0.065875, 0.065986, 99.830846
2.345000, 0.065875, 0.065986, 99.831862
2.347500, 0.065876, 0.065986, 99.832825
2.350000, 0.065877, 0.065986, 99.833710
2.352500, 0.065877, 0.065986, 99.834480
2.355000, 0.065877, 0.065986, 99.835113
2.357500, 0.065878, 0.065986, 99.835612
2.360000, 0.065878, 0.065986, 99.836029
2.362500, 0.065878, 0.065986, 99.836354
2.365000, 0.065878, 0.065986, 99.836562
2.367500, 0.065878, 0.065986, 99.836623
2.370000, 0.065878, 0.065986, 99.836570
2.372500, 0.065878, 0.065986, 99.836515
2.375000, 0.065878, 0.065986, 99.836450
2.377500, 0.065878, 0.065986, 99.836345
2.380000, 0.065878, 0.065986, 99.836184
2.382500, 0.065878, 0.065986, 99.835948
2.385000, 0.065878, 0.065986, 99.835615
2.387500, 0.065877, 0.065986, 99.835172
2.390000, 0.065877, 0.065986, 99.834600
2.392500, 0.065877, 0.065986, 99.833876
2.395000, 0.065876, 0.065986, 99.832970
2.397500, 0.065875, 0.065986, 99.831865
2.400000, 0.065874, 0.065986, 99.830549
2.402500, 0.065873, 0.065986, 99.829015
2.405000, 0.065872, 0.065986, 99.827238
2.407500, 0.065871, 0.065986, 99.825230
2.410000, 0.065870, 0.065986, 99.823103
2.412500, 0.065868, 0.065986, 99.820904
2.415000, 0.065867, 0.065986, 99.818660
2.417500, 0.065865, 0.065986, 99.816370
2.420000, 0.065864, 0.065986, 99.814104
2.422500, 0.065862, 0.065986, 99.811949
2.425000, 0.065861, 0.065986, 99.809995
2.427500, 0.065860, 0.065986, 99.808261
2.430000, 0.065859, 0.065986, 99.806708
2.432500, 0.065858, 0.065986, 99.805309
2.435000, 0.065857, 0.065986, 99.804083
2.437500, 0.065856, 0.065986, 99.803158
2.440000, 0.065856, 0.065986, 99.802519
2.442500, 0.065856, 0.065986, 99.802112
2.445000, 0.065856, 0.065986, 99.801886
2.447500, 0.065855, 0.065986, 99.801787
2.450000, 0.065855, 0.065986, 99.801815
2.452500, 0.065856, 0.065986, 99.801936
2.455000, 0.065856, 0.065986, 99.802105
2.457500, 0.065856, 0.065986, 99.802319
2.460000, 0.065856, 0.065986, 99.802637
2.462500, 0.065856, 0.065986, 99.803094
2.465000, 0.065857, 0.065986, 99.803687
2.467500, 0.065857, 0.065986, 99.804365
2.470000, 0.065858, 0.065986, 99.805228
2.472500, 0.065858, 0.065986, 99.806350
2.475000, 0.065859, 0.065986, 99.807698
2.477500, 0.065860, 0.065986, 99.809257
2.480000, 0.065862, 0.065986, 99.810957
2.482500, 0.065863, 0.065986, 99.812722
2.485000, 0.065864, 0.065986, 99.814524
2.487500, 0.065865, 0.065986, 99.816355
2.490000, 0.065866, 0.065986, 99.818174
2.492500, 0.065867, 0.065986, 99.819937
2.495000, 0.065869, 0.065986, 99.821606
2.497500, 0.065870, 0.065986, 99.823142
2.500000, 0.065870, 0.065986, 99.824508
2.502500, 0.065871, 0.065986, 99.825692
2.505000, 0.065872, 0.065986, 99.826789
2.507500, 0.065873, 0.065986, 99.827827
2.510000, 0.065873, 0.065986, 99.828777
2.512500, 0.065874, 0.065986, 99.829614
2.515000, 0.065874, 0.065986, 99.830316
2.517500, 0.065875, 0.065986, 99.830899
2.520000, 0.065875, 0.065986, 99.831401
2.522500, 0.065875, 0.065986, 99.831793
2.525000, 0.065875, 0.065986, 99.832059
2.527500, 0.065876, 0.065986, 99.832172
2.530000, 0.065876, 0.065986, 99.832193
2.532500, 0.065876, 0.065986, 99.832211
2.535000, 0.065876, 0.065986, 99.832202
2.537500, 0.065875, 0.065986, 99.832156
2.540000, 0.065875, 0.065986, 99.832064
2.542500, 0.065875, 0.065986, 99.831899
2.545000, 0.065875, 0.065986, 99.831632
2.547500, 0.065875, 0.065986, 99.831242
2.550000, 0.065875, 0.065986, 99.830702
2.552500, 0.065874, 0.065986, 99.829999
2.555000, 0.065873, 0.065986, 99.829101
2.557500, 0.065873, 0.065986, 99.827994
2.560000, 0.065872, 0.065986, 99.826665
2.562500, 0.065871, 0.065986, 99.825097
2.565000, 0.065870, 0.065986, 99.823267
2.567500, 0.065868, 0.065986, 99.821230
2.570000, 0.065867, 0.065986, 99.819103
2.572500, 0.065865, 0.065986, 99.816903
2.575000, 0.065864, 0.065986, 99.814648
2.577500, 0.065862, 0.065986, 99.812353
2.580000, 0.065861, 0.065986, 99.810125
2.582500, 0.065860, 0.065986, 99.808000
2.585000, 0.065858, 0.065986, 99.806070
2.587500, 0.065857, 0.065986, 99.804351
2.590000, 0.065856, 0.065986, 99.802800
2.592500, 0.065855, 0.065986, 99.801379
2.595000, 0.065854, 0.065986, 99.800136
2.597500, 0.065854, 0.065986, 99.799187
2.600000, 0.065853, 0.065986, 99.798503
2.602500, 0.065853, 0.065986, 99.798039
2.605000, 0.065853, 0.065986, 99.797750
2.607500, 0.065853, 0.065986, 99.797594
2.610000, 0.065853, 0.065986, 99.797561
2.612500, 0.065853, 0.065986, 99.797618
2.615000, 0.065853, 0.065986, 99.797724
2.617500, 0.065853, 0.065986, 99.797883
2.620000, 0.065853, 0.065986, 99.798156
2.622500, 0.065853, 0.065986, 99.798587
2.625000, 0.065854, 0.065986, 99.799156
2.627500, 0.065854, 0.065986, 99.799826
2.630000, 0.065855, 0.065986, 99.800593
2.632500, 0.065855, 0.065986, 99.801719
2.635000, 0.065856, 0.065986, 99.803100
2.637500, 0.065857, 0.065986, 99.804687
2.640000, 0.065859, 0.065986, 99.806414
2.642500, 0.065860, 0.065986, 99.808212
2.645000, 0.065861, 0.065986, 99.810073
2.647500, 0.065862, 0.065986, 99.811970
2.650000, 0.065863, 0.065986, 99.813864
2.652500, 0.065865, 0.065986, 99.815616
2.655000, 0.065866, 0.065986, 99.817361
2.657500, 0.065867, 0.065986, 99.818978
2.660000, 0.065868, 0.065986, 99.820416
2.662500, 0.065869, 0.065986, 99.821685
2.665000, 0.065869, 0.065986, 99.822874
2.667500, 0.065870, 0.065986, 99.824002
2.670000, 0.065871, 0.065986, 99.825035
2.672500, 0.065871, 0.065986, 99.825944
2.675000, 0.065872, 0.065986, 99.826707
2.677500, 0.065872, 0.065986, 99.827346
2.680000, 0.065873, 0.065986, 99.827902
2.682500, 0.065873, 0.065986, 99.828352
2.685000, 0.065873, 0.065986, 99.828672
2.687500, 0.065873, 0.065986, 99.828834
2.690000, 0.065873, 0.065986, 99.828903
2.692500, 0.065873, 0.065986, 99.828975
2.695000, 0.065873, 0.065986, 99.829028
2.697500, 0.065873, 0.065986, 99.829047
2.700000, 0.065873, 0.065986, 99.829023
2.702500, 0.065873, 0.065986, 99.828918
2.705000, 0.065873, 0.065986, 99.828697
2.707500, 0.065873, 0.065986, 99.828342
2.710000, 0.065873, 0.065986, 99.827842
2.712500, 0.065872, 0.065986, 99.827175
2.715000, 0.065872, 0.065986, 99.826309
2.717500, 0.065871, 0.065986, 99.825223
2.720000, 0.065870, 0.065986, 99.823899
2.722500, 0.065869, 0.065986, 99.822332
2.725000, 0.065868, 0.065986, 99.820521
2.727500, 0.065866, 0.065986, 99.818502
2.730000, 0.065865, 0.065986, 99.816383
2.732500, 0.065864, 0.065986, 99.814179
2.735000, 0.065862, 0.065986, 99.811908
2.737500, 0.065861, 0.065986, 99.809617
2.740000, 0.065859, 0.065986, 99.807399
2.742500, 0.065858, 0.065986, 99.805280
2.745000, 0.065856, 0.065986, 99.803333
2.747500, 0.065855, 0.065986, 99.801582
2.750000, 0.065854, 0.065986, 99.799987
2.752500, 0.065853, 0.065986, 99.798523
2.755000, 0.065852, 0.065986, 99.797223
2.757500, 0.065852, 0.065986, 99.796214
2.760000, 0.065851, 0.065986, 99.795472
2.762500, 0.065851, 0.065986, 99.794958
2.765000, 0.065851, 0.065986, 99.794640
2.767500, 0.065851, 0.065986, 99.794450
2.770000, 0.065850, 0.065986, 99.794273
2.772500, 0.065850, 0.065986, 99.794222
2.775000, 0.065851, 0.065986, 99.794430
2.777500, 0.065851, 0.065986, 99.794507
2.780000, 0.065851, 0.065986, 99.794752
2.782500, 0.065851, 0.065986, 99.795181
2.785000, 0.065851, 0.065986, 99.795674
2.787500, 0.065852, 0.065986, 99.796319
2.790000, 0.065852, 0.065986, 99.797185
2.792500, 0.065853, 0.065986, 99.798344
2.795000, 0.065854, 0.065986, 99.799713
2.797500, 0.065855, 0.065986, 99.801316
2.800000, 0.065856, 0.065986, 99.803009
2.802500, 0.065857, 0.065986, 99.804833
2.805000, 0.065859, 0.065986, 99.806576
2.807500, 0.065860, 0.065986, 99.808587
2.810000, 0.065861, 0.065986, 99.810655
2.812500, 0.065862, 0.065986, 99.812453
2.815000, 0.065864, 0.065986, 99.814268
2.817500, 0.065865, 0.065986, 99.815867
2.820000, 0.065866, 0.065986, 99.817371
2.822500, 0.065867, 0.065986, 99.818724
2.825000, 0.065867, 0.065986, 99.820040
2.827500, 0.065868, 0.065986, 99.821203
2.830000, 0.065869, 0.065986, 99.822271
2.832500, 0.065870, 0.065986, 99.823229
2.835000, 0.065870, 0.065986, 99.824045
2.837500, 0.065871, 0.065986, 99.824726
2.840000, 0.065871, 0.065986, 99.825333
2.842500, 0.065871, 0.065986, 99.825836
2.845000, 0.065872, 0.065986, 99.826216
2.847500, 0.065872, 0.065986, 99.826426
2.850000, 0.065872, 0.065986, 99.826652
2.852500, 0.065872, 0.065986, 99.826724
2.855000, 0.065872, 0.065986, 99.826830
2.857500, 0.065872, 0.065986, 99.826856
2.860000, 0.065872, 0.065986, 99.826870
2.862500, 0.065872, 0.065986, 99.826770
2.865000, 0.065872, 0.065986, 99.826603
2.867500, 0.065872, 0.065986, 99.826294
2.870000, 0.065871, 0.065986, 99.825838
2.872500, 0.065871, 0.065986, 99.825212
2.875000, 0.065870, 0.065986, 99.824385
2.877500, 0.065870, 0.065986, 99.823330
2.880000, 0.065869, 0.065986, 99.822009
2.882500, 0.065868, 0.065986, 99.820471
2.885000, 0.065867, 0.065986, 99.818711
2.887500, 0.065865, 0.065986, 99.816734
2.890000, 0.065864, 0.065986, 99.814616
2.892500, 0.065862, 0.065986, 99.812431
2.895000, 0.065861, 0.065986, 99.810147
2.897500, 0.065859, 0.065986, 99.807844
2.900000, 0.065858, 0.065986, 99.805623
2.902500, 0.065857, 0.065986, 99.803500
2.905000, 0.065855, 0.065986, 99.801507
2.907500, 0.065854, 0.065986, 99.799712
2.910000, 0.065853, 0.065986, 99.798077
2.912500, 0.065852, 0.065986, 99.796568
2.915000, 0.065851, 0.065986, 99.795192
2.917500, 0.065850, 0.065986, 99.794078
2.920000, 0.065850, 0.065986, 99.793099
2.922500, 0.065849, 0.065986, 99.792443
2.925000, 0.065849, 0.065986, 99.792007
2.927500, 0.065849, 0.065986, 99.791726
2.930000, 0.065849, 0.065986, 99.791591
2.932500, 0.065849, 0.065986, 99.791581
2.935000, 0.065849, 0.065986, 99.791651
2.937500, 0.065849, 0.065986, 99.791769
2.940000, 0.065849, 0.065986, 99.791870
2.942500, 0.065849, 0.065986, 99.792238
2.945000, 0.065850, 0.065986, 99.792770
2.947500, 0.065850, 0.065986, 99.793419
2.950000, 0.065850, 0.065986, 99.794182
2.952500, 0.065851, 0.065986, 99.795198
2.955000, 0.065852, 0.065986, 99.796473
2.957500, 0.065853, 0.065986, 99.797995
2.960000, 0.065854, 0.065986, 99.799709
2.962500, 0.065855, 0.065986, 99.801540
2.965000, 0.065857, 0.065986, 99.803461
2.967500, 0.065858, 0.065986, 99.805448
2.970000, 0.065859, 0.065986, 99.807459
2.972500, 0.065860, 0.065986, 99.809434
2.975000, 0.065862, 0.065986, 99.811318
2.977500, 0.065863, 0.065986, 99.813070
2.980000, 0.065864, 0.065986, 99.814655
2.982500, 0.065865, 0.065986, 99.816060
2.985000, 0.065866, 0.065986, 99.817359
2.987500, 0.065867, 0.065986, 99.818592
2.990000, 0.065867, 0.065986, 99.819751
2.992500, 0.065868, 0.065986, 99.820803
2.995000, 0.065869, 0.065986, 99.821718
2.997500, 0.065869, 0.065986, 99.822483
3.000000, 0.065870, 0.065986, 99.823149
3.002500, 0.065870, 0.065986, 99.823729
3.005000, 0.065870, 0.065986, 99.824196
3.007500, 0.065870, 0.065986, 99.824523
3.010000, 0.065871, 0.065986, 99.824697
3.012500, 0.065871, 0.065986, 99.824827
3.015000, 0.065871, 0.065986, 99.824952
3.017500, 0.065871, 0.065986, 99.825057
3.020000, 0.065871, 0.065986, 99.825125
3.022500, 0.065871, 0.065986, 99.825122
3.025000, 0.065871, 0.065986, 99.825015
3.027500, 0.065871, 0.065986, 99.824788
3.030000, 0.065870, 0.065986, 99.824415
3.032500, 0.065870, 0.065986, 99.823872
3.035000, 0.065870, 0.065986, 99.823127
3.037500, 0.065869, 0.065986, 99.822153
3.040000, 0.065868, 0.065986, 99.820948
3.042500, 0.065867, 0.065986, 99.819518
3.045000, 0.065866, 0.065986, 99.817857
3.047500, 0.065865, 0.065986, 99.815951
3.050000, 0.065863, 0.065986, 99.813873
3.052500, 0.065862, 0.065986, 99.811711
3.055000, 0.065861, 0.065986, 99.809484
3.057500, 0.065859, 0.065986, 99.807190
3.060000, 0.065858, 0.065986, 99.804943
3.062500, 0.065856, 0.065986, 99.802792
3.065000, 0.065855, 0.065986, 99.800729
3.067500, 0.065854, 0.065986, 99.798832
3.070000, 0.065852, 0.065986, 99.797111
3.072500, 0.065851, 0.065986, 99.795530
3.075000, 0.065850, 0.065986, 99.794068
3.077500, 0.065850, 0.065986, 99.792796
3.080000, 0.065849, 0.065986, 99.791799
3.082500, 0.065848, 0.065986, 99.791055
3.085000, 0.065848, 0.065986, 99.790532
3.087500, 0.065848, 0.065986, 99.790155
3.090000, 0.065848, 0.065986, 99.789957
3.092500, 0.065847, 0.065986, 99.789731
3.095000, 0.065848, 0.065986, 99.789776
3.097500, 0.065848, 0.065986, 99.789872
3.100000, 0.065848, 0.065986, 99.790012
3.102500, 0.065848, 0.065986, 99.790271
3.105000, 0.065848, 0.065986, 99.790706
3.107500, 0.065849, 0.065986, 99.791293
3.110000, 0.065849, 0.065986, 99.791985
3.112500, 0.065850, 0.065986, 99.792843
3.115000, 0.065850, 0.065986, 99.793972
3.117500, 0.065851, 0.065986, 99.795364
3.120000, 0.065852, 0.065986, 99.796983
3.122500, 0.065853, 0.065986, 99.798757
3.125000, 0.065855, 0.065986, 99.800639
3.127500, 0.065856, 0.065986, 99.802614
3.130000, 0.065857, 0.065986, 99.804642
3.132500, 0.065859, 0.065986, 99.806669
3.135000, 0.065860, 0.065986, 99.808632
3.137500, 0.065861, 0.065986, 99.810488
3.140000, 0.065862, 0.065986, 99.812200
3.142500, 0.065863, 0.065986, 99.813738
3.145000, 0.065864, 0.065986, 99.815120
3.147500, 0.065865, 0.065986, 99.816417
3.150000, 0.065866, 0.065986, 99.817646
3.152500, 0.065867, 0.065986, 99.818786
3.155000, 0.065867, 0.065986, 99.819808
3.157500, 0.065868, 0.065986, 99.820681
3.160000, 0.065868, 0.065986, 99.821413
3.162500, 0.065869, 0.065986, 99.822064
3.165000, 0.065869, 0.065986, 99.822624
3.167500, 0.065869, 0.065986, 99.823062
3.170000, 0.065870, 0.065986, 99.823350
3.172500, 0.065870, 0.065986, 99.823507
3.175000, 0.065870, 0.065986, 99.823650
3.177500, 0.065870, 0.065986, 99.823788
3.180000, 0.065870, 0.065986, 99.823905
3.182500, 0.065870, 0.065986, 99.823971
3.185000, 0.065870, 0.065986, 99.823955
3.187500, 0.065870, 0.065986, 99.823829
3.190000, 0.065870, 0.065986, 99.823570
3.192500, 0.065870, 0.065986, 99.823152
3.195000, 0.065869, 0.065986, 99.822551
3.197500, 0.065869, 0.065986, 99.821732
3.200000, 0.065868, 0.065986, 99.820685
3.202500, 0.065867, 0.065986, 99.819416
3.205000, 0.065866, 0.065986, 99.817922
3.207500, 0.065865, 0.065986, 99.816189
3.210000, 0.065864, 0.065986, 99.814219
3.212500, 0.065862, 0.065986, 99.812108
3.215000, 0.065861, 0.065986, 99.809909
3.217500, 0.065859, 0.065986, 99.807626
3.220000, 0.065858, 0.065986, 99.805342
3.222500, 0.065856, 0.065986, 99.803135
3.225000, 0.065855, 0.065986, 99.801023
3.227500, 0.065854, 0.065986, 99.798985
3.230000, 0.065852, 0.065986, 99.797063
3.232500, 0.065851, 0.065986, 99.795300
3.235000, 0.065850, 0.065986, 99.793671
3.237500, 0.065849, 0.065986, 99.792174
3.240000, 0.065848, 0.065986, 99.790850
3.242500, 0.065848, 0.065986, 99.789781
3.245000, 0.065847, 0.065986, 99.788968
3.247500, 0.065847, 0.065986, 99.788381
3.250000, 0.065846, 0.065986, 99.787978
3.252500, 0.065846, 0.065986, 99.787742
3.255000, 0.065846, 0.065986, 99.787673
3.257500, 0.065846, 0.065986, 99.787730
3.260000, 0.065846, 0.065986, 99.787859
3.262500, 0.065846, 0.065986, 99.788012
3.265000, 0.065846, 0.065986, 99.788181
3.267500, 0.065847, 0.065986, 99.788609
3.270000, 0.065847, 0.065986, 99.789192
3.272500, 0.065848, 0.065986, 99.789864
3.275000, 0.065848, 0.065986, 99.790658
3.277500, 0.065849, 0.065986, 99.791708
3.280000, 0.065850, 0.065986, 99.793041
3.282500, 0.065851, 0.065986, 99.794616
3.285000, 0.065852, 0.065986, 99.796356
3.287500, 0.065853, 0.065986, 99.798241
3.290000, 0.065854, 0.065986, 99.800245
3.292500, 0.065856, 0.065986, 99.802312
3.295000, 0.065857, 0.065986, 99.804385
3.297500, 0.065858, 0.065986, 99.806397
3.300000, 0.065860, 0.065986, 99.808310
3.302500, 0.065861, 0.065986, 99.810087
3.305000, 0.065862, 0.065986, 99.811699
3.307500, 0.065863, 0.065986, 99.813176
3.310000, 0.065864, 0.065986, 99.814556
3.312500, 0.065865, 0.065986, 99.815839
3.315000, 0.065866, 0.065986, 99.817039
3.317500, 0.065866, 0.065986, 99.818128
3.320000, 0.065867, 0.065986, 99.819078
3.322500, 0.065867, 0.065986, 99.819874
3.325000, 0.065868, 0.065986, 99.820570
3.327500, 0.065868, 0.065986, 99.821181
3.330000, 0.065869, 0.065986, 99.821677
3.332500, 0.065869, 0.065986, 99.822034
3.335000, 0.065869, 0.065986, 99.822232
3.337500, 0.065869, 0.065986, 99.822365
3.340000, 0.065869, 0.065986, 99.822513
3.342500, 0.065869, 0.065986, 99.822649
3.345000, 0.065869, 0.065986, 99.822745
3.347500, 0.065869, 0.065986, 99.822767
3.350000, 0.065869, 0.065986, 99.822688
3.352500, 0.065869, 0.065986, 99.822478
3.355000, 0.065869, 0.065986, 99.822116
3.357500, 0.065869, 0.065986, 99.821574
3.360000, 0.065868, 0.065986, 99.820821
3.362500, 0.065867, 0.065986, 99.819854
3.365000, 0.065867, 0.065986, 99.818682
3.367500, 0.065866, 0.065986, 99.817283
3.370000, 0.065865, 0.065986, 99.815653
3.372500, 0.065863, 0.065986, 99.813780
3.375000, 0.065862, 0.065986, 99.811700
3.377500, 0.065861, 0.065986, 99.809522
3.380000, 0.065859, 0.065986, 99.807273
3.382500, 0.065858, 0.065986, 99.805019
3.385000, 0.065856, 0.065986, 99.802857
3.387500, 0.065855, 0.065986, 99.800792
3.390000, 0.065853, 0.065986, 99.798796
3.392500, 0.065852, 0.065986, 99.796871
3.395000, 0.065851, 0.065986, 99.795050
3.397500, 0.065850, 0.065986, 99.793378
3.400000, 0.065849, 0.065986, 99.791864
3.402500, 0.065848, 0.065986, 99.790522
3.405000, 0.065847, 0.065986, 99.789373
3.407500, 0.065847, 0.065986, 99.788488
3.410000, 0.065846, 0.065986, 99.787845
3.412500, 0.065846, 0.065986, 99.787402
3.415000, 0.065846, 0.065986, 99.787124
3.417500, 0.065846, 0.065986, 99.786994
3.420000, 0.065846, 0.065986, 99.786988
3.422500, 0.065846, 0.065986, 99.787067
3.425000, 0.065846, 0.065986, 99.787187
3.427500, 0.065846, 0.065986, 99.787318
3.430000, 0.065846, 0.065986, 99.787638
3.432500, 0.065846, 0.065986, 99.788149
3.435000, 0.065847, 0.065986, 99.788790
3.437500, 0.065847, 0.065986, 99.789524
3.440000, 0.065848, 0.065986, 99.790393
3.442500, 0.065849, 0.065986, 99.791530
3.445000, 0.065850, 0.065986, 99.792938
3.447500, 0.065851, 0.065986, 99.794555
3.450000, 0.065852, 0.065986, 99.796370
3.452500, 0.065853, 0.065986, 99.798345
3.455000, 0.065855, 0.065986, 99.800420
3.457500, 0.065856, 0.065986, 99.802538
3.460000, 0.065857, 0.065986, 99.804633
3.462500, 0.065859, 0.065986, 99.806654
3.465000, 0.065860, 0.065986, 99.808560
3.467500, 0.065861, 0.065986, 99.810318
3.470000, 0.065862, 0.065986, 99.811910
3.472500, 0.065863, 0.065986, 99.813401
3.475000, 0.065864, 0.065986, 99.814787
3.477500, 0.065865, 0.065986, 99.816076
3.480000, 0.065866, 0.065986, 99.817269
3.482500, 0.065866, 0.065986, 99.818341
3.485000, 0.065867, 0.065986, 99.819274
3.487500, 0.065868, 0.065986, 99.820062
3.490000, 0.065868, 0.065986, 99.820747
3.492500, 0.065868, 0.065986, 99.821338
3.495000, 0.065869, 0.065986, 99.821808
3.497500, 0.065869, 0.065986, 99.822132
3.500000, 0.065869, 0.065986, 99.822300
3.502500, 0.065869, 0.065986, 99.822429
3.505000, 0.065869, 0.065986, 99.822568
3.507500, 0.065869, 0.065986, 99.822690
3.510000, 0.065869, 0.065986, 99.822761
3.512500, 0.065869, 0.065986, 99.822749
3.515000, 0.065869, 0.065986, 99.822626
3.517500, 0.065869, 0.065986, 99.822363
3.520000, 0.065869, 0.065986, 99.821938
3.522500, 0.065868, 0.065986, 99.821336
3.525000, 0.065868, 0.065986, 99.820547
3.527500, 0.065867, 0.065986, 99.819562
3.530000, 0.065866, 0.065986, 99.818377
3.532500, 0.065865, 0.065986, 99.816971
3.535000, 0.065864, 0.065986, 99.815330
3.537500, 0.065863, 0.065986, 99.813453
3.540000, 0.065862, 0.065986, 99.811386
3.542500, 0.065860, 0.065986, 99.809258
3.545000, 0.065859, 0.065986, 99.807097
3.547500, 0.065858, 0.065986, 99.804952
3.550000, 0.065856, 0.065986, 99.802862
3.552500, 0.065855, 0.065986, 99.800818
3.555000, 0.065853, 0.065986, 99.798810
3.557500, 0.065852, 0.065986, 99.796843
3.560000, 0.065851, 0.065986, 99.794890
3.562500, 0.065850, 0.065986, 99.792942
3.565000, 0.065848, 0.065986, 99.791041
3.567500, 0.065847, 0.065986, 99.789248
3.570000, 0.065846, 0.065986, 99.787624
3.572500, 0.065845, 0.065986, 99.786155
3.575000, 0.065844, 0.065986, 99.784821
3.577500, 0.065843, 0.065986, 99.783598
3.580000, 0.065843, 0.065986, 99.782527
3.582500, 0.065842, 0.065986, 99.781683
3.585000, 0.065842, 0.065986, 99.781050
3.587500, 0.065841, 0.065986, 99.780589
3.590000, 0.065841, 0.065986, 99.780274
3.592500, 0.065841, 0.065986, 99.780065
3.595000, 0.065841, 0.065986, 99.779981
3.597500, 0.065841, 0.065986, 99.780044
3.600000, 0.065841, 0.065986, 99.780217
3.602500, 0.065841, 0.065986, 99.780480
3.605000, 0.065842, 0.065986, 99.780876
3.607500, 0.065842, 0.065986, 99.781396
3.610000, 0.065842, 0.065986, 99.782056
3.612500, 0.065843, 0.065986, 99.782862
3.615000, 0.065844, 0.065986, 99.783853
3.617500, 0.065844, 0.065986, 99.785137
3.620000, 0.065845, 0.065986, 99.786686
3.622500, 0.065847, 0.065986, 99.788438
3.625000, 0.065848, 0.065986, 99.790343
3.627500, 0.065849, 0.065986, 99.792332
3.630000, 0.065851, 0.065986, 99.794346
3.632500, 0.065852, 0.065986, 99.796344
3.635000, 0.065853, 0.065986, 99.798293
3.637500, 0.065854, 0.065986, 99.800237
3.640000, 0.065856, 0.065986, 99.802189
3.642500, 0.065857, 0.065986, 99.804092
3.645000, 0.065858, 0.065986, 99.805882
3.647500, 0.065859, 0.065986, 99.807541
3.650000, 0.065860, 0.065986, 99.809048
3.652500, 0.065861, 0.065986, 99.810434
3.655000, 0.065862, 0.065986, 99.811723
3.657500, 0.065863, 0.065986, 99.812890
3.660000, 0.065863, 0.065986, 99.813919
3.662500, 0.065864, 0.065986, 99.814798
3.665000, 0.065865, 0.065986, 99.815549
3.667500, 0.065865, 0.065986, 99.816204
3.670000, 0.065865, 0.065986, 99.816744
3.672500, 0.065866, 0.065986, 99.817140
3.675000, 0.065866, 0.065986, 99.817368
3.677500, 0.065866, 0.065986, 99.817516
3.680000, 0.065866, 0.065986, 99.817653
3.682500, 0.065866, 0.065986, 99.817759
3.685000, 0.065866, 0.065986, 99.817792
3.687500, 0.065866, 0.065986, 99.817731
3.690000, 0.065866, 0.065986, 99.817560
3.692500, 0.065866, 0.065986, 99.817258
3.695000, 0.065865, 0.065986, 99.816805
3.697500, 0.065865, 0.065986, 99.816184
3.700000, 0.065864, 0.065986, 99.815386
3.702500, 0.065864, 0.065986, 99.814413
3.705000, 0.065863, 0.065986, 99.813277
3.707500, 0.065862, 0.065986, 99.811969
3.710000, 0.065861, 0.065986, 99.810477
3.712500, 0.065860, 0.065986, 99.808835
3.715000, 0.065859, 0.065986, 99.807121
3.717500, 0.065858, 0.065986, 99.805435
3.720000, 0.065857, 0.065986, 99.803806
3.722500, 0.065856, 0.065986, 99.802206
3.725000, 0.065855, 0.065986, 99.800621
3.727500, 0.065854, 0.065986, 99.799046
3.730000, 0.065853, 0.065986, 99.797513
3.732500, 0.065852, 0.065986, 99.796062
3.735000, 0.065851, 0.065986, 99.794752
3.737500, 0.065850, 0.065986, 99.793593
3.740000, 0.065849, 0.065986, 99.792558
3.742500, 0.065849, 0.065986, 99.791651
3.745000, 0.065848, 0.065986, 99.790920
3.747500, 0.065848, 0.065986, 99.790354
3.750000, 0.065848, 0.065986, 99.789929
3.752500, 0.065847, 0.065986, 99.789621
3.755000, 0.065847, 0.065986, 99.789400
3.757500, 0.065847, 0.065986, 99.789278
3.760000, 0.065847, 0.065986, 99.789214
3.762500, 0.065847, 0.065986, 99.789210
3.765000, 0.065847, 0.065986, 99.789229
3.767500, 0.065847, 0.065986, 99.789322
3.770000, 0.065847, 0.065986, 99.789524
3.772500, 0.065848, 0.065986, 99.789898
3.775000, 0.065848, 0.065986, 99.790401
3.777500, 0.065848, 0.065986, 99.791108
3.780000, 0.065849, 0.065986, 99.792107
3.782500, 0.065850, 0.065986, 99.793369
3.785000, 0.065851, 0.065986, 99.794867
3.787500, 0.065852, 0.065986, 99.796558
3.790000, 0.065853, 0.065986, 99.798391
3.792500, 0.065854, 0.065986, 99.800319
3.795000, 0.065856, 0.065986, 99.802270
3.797500, 0.065857, 0.065986, 99.804253
3.800000, 0.065858, 0.065986, 99.806214
3.802500, 0.065860, 0.065986, 99.808112
3.805000, 0.065861, 0.065986, 99.809922
3.807500, 0.065862, 0.065986, 99.811601
3.810000, 0.065863, 0.065986, 99.813143
3.812500, 0.065864, 0.065986, 99.814592
3.815000, 0.065865, 0.065986, 99.815959
3.817500, 0.065866, 0.065986, 99.817281
3.820000, 0.065867, 0.065986, 99.818538
3.822500, 0.065867, 0.065986, 99.819688
3.825000, 0.065868, 0.065986, 99.820761
3.827500, 0.065869, 0.065986, 99.821675
3.830000, 0.065869, 0.065986, 99.822461
3.832500, 0.065870, 0.065986, 99.823169
3.835000, 0.065870, 0.065986, 99.823785
3.837500, 0.065870, 0.065986, 99.824246
3.840000, 0.065870, 0.065986, 99.824559
3.842500, 0.065871, 0.065986, 99.824739
3.845000, 0.065871, 0.065986, 99.824860
3.847500, 0.065871, 0.065986, 99.824944
3.850000, 0.065871, 0.065986, 99.824962
3.852500, 0.065871, 0.065986, 99.824901
3.855000, 0.065871, 0.065986, 99.824759
3.857500, 0.065870, 0.065986, 99.824525
3.860000, 0.065870, 0.065986, 99.824177
3.862500, 0.065870, 0.065986, 99.823693
3.865000, 0.065869, 0.065986, 99.823068
3.867500, 0.065869, 0.065986, 99.822318
3.870000, 0.065868, 0.065986, 99.821433
3.872500, 0.065868, 0.065986, 99.820407
3.875000, 0.065867, 0.065986, 99.819210
3.877500, 0.065866, 0.065986, 99.817844
3.880000, 0.065865, 0.065986, 99.816228
3.882500, 0.065864, 0.065986, 99.814504
3.885000, 0.065863, 0.065986, 99.812649
3.887500, 0.065861, 0.065986, 99.810775
3.890000, 0.065860, 0.065986, 99.808957
3.892500, 0.065859, 0.065986, 99.807165
3.895000, 0.065858, 0.065986, 99.805388
3.897500, 0.065857, 0.065986, 99.803622
3.900000, 0.065856, 0.065986, 99.801865
3.902500, 0.065854, 0.065986, 99.800166
3.905000, 0.065853, 0.065986, 99.798542
3.907500, 0.065852, 0.065986, 99.796920
3.910000, 0.065851, 0.065986, 99.795296
3.912500, 0.065850, 0.065986, 99.793693
3.915000, 0.065849, 0.065986, 99.792134
3.917500, 0.065848, 0.065986, 99.790561
3.920000, 0.065847, 0.065986, 99.789009
3.922500, 0.065846, 0.065986, 99.787416
3.925000, 0.065845, 0.065986, 99.785763
3.927500, 0.065844, 0.065986, 99.784056
3.930000, 0.065843, 0.065986, 99.782371
3.932500, 0.065842, 0.065986, 99.780954
3.935000, 0.065841, 0.065986, 99.779384
3.937500, 0.065840, 0.065986, 99.777786
3.940000, 0.065839, 0.065986, 99.776190
3.942500, 0.065838, 0.065986, 99.774584
3.945000, 0.065836, 0.065986, 99.772961
3.947500, 0.065835, 0.065986, 99.771351
3.950000, 0.065834, 0.065986, 99.769848
3.952500, 0.065833, 0.065986, 99.768455
3.955000, 0.065833, 0.065986, 99.767157
3.957500, 0.065832, 0.065986, 99.765956
3.960000, 0.065831, 0.065986, 99.764894
3.962500, 0.065830, 0.065986, 99.763948
3.965000, 0.065830, 0.065986, 99.763118
3.967500, 0.065829, 0.065986, 99.762390
3.970000, 0.065829, 0.065986, 99.761759
3.972500, 0.065829, 0.065986, 99.761202
3.975000, 0.065828, 0.065986, 99.760700
3.977500, 0.065828, 0.065986, 99.760265
3.980000, 0.065828, 0.065986, 99.759875
3.982500, 0.065828, 0.065986, 99.759561
3.985000, 0.065827, 0.065986, 99.759330
3.987500, 0.065827, 0.065986, 99.759156
3.990000, 0.065827, 0.065986, 99.759014
3.992500, 0.065827, 0.065986, 99.758921
3.995000, 0.065827, 0.065986, 99.758962
3.997500, 0.065827, 0.065986, 99.759125
4.000000, 0.065827, 0.065986, 99.759379
4.002500, 0.065828, 0.065986, 99.759689
