Time, V_g(t), V_g(0), V_g(t)/V_g(0)
0.002500, 0.065986, 0.065986, 100.000000
0.005000, 0.065993, 0.065986, 100.010776
0.007500, 0.065995, 0.065986, 100.013031
0.010000, 0.065995, 0.065986, 100.013594
0.012500, 0.065995, 0.065986, 100.013537
0.015000, 0.065995, 0.065986, 100.012918
0.017500, 0.065994, 0.065986, 100.012270
0.020000, 0.065994, 0.065986, 100.011436
0.022500, 0.065993, 0.065986, 100.010608
0.025000, 0.065993, 0.065986, 100.009784
0.027500, 0.065992, 0.065986, 100.008818
0.030000, 0.065991, 0.065986, 100.007925
0.032500, 0.065991, 0.065986, 100.006937
0.035000, 0.065990, 0.065986, 100.005752
0.037500, 0.065989, 0.065986, 100.004742
0.040000, 0.065989, 0.065986, 100.003607
0.042500, 0.065988, 0.065986, 100.002323
0.045000, 0.065987, 0.065986, 100.001004
0.047500, 0.065986, 0.065986, 99.999581
0.050000, 0.065985, 0.065986, 99.998140
0.052500, 0.065984, 0.065986, 99.996770
0.055000, 0.065983, 0.065986, 99.995278
0.057500, 0.065982, 0.065986, 99.993790
0.060000, 0.065981, 0.065986, 99.992412
0.062500, 0.065980, 0.065986, 99.990936
0.065000, 0.065979, 0.065986, 99.989370
0.067500, 0.065978, 0.065986, 99.987945
0.070000, 0.065977, 0.065986, 99.986539
0.072500, 0.065976, 0.065986, 99.985155
0.075000, 0.065976, 0.065986, 99.983759
0.077500, 0.065975, 0.065986, 99.982363
0.080000, 0.065974, 0.065986, 99.981004
0.082500, 0.065973, 0.065986, 99.979672
0.085000, 0.065972, 0.065986, 99.978348
0.087500, 0.065971, 0.065986, 99.977047
0.090000, 0.065970, 0.065986, 99.975780
0.092500, 0.065969, 0.065986, 99.974553
0.095000, 0.065969, 0.065986, 99.973365
0.097500, 0.065968, 0.065986, 99.972221
0.100000, 0.065967, 0.065986, 99.971125
0.102500, 0.065967, 0.065986, 99.970085
0.105000, 0.065966, 0.065986, 99.969078
0.107500, 0.065965, 0.065986, 99.968005
0.110000, 0.065965, 0.065986, 99.967111
0.112500, 0.065964, 0.065986, 99.966269
0.115000, 0.065963, 0.065986, 99.965486
0.117500, 0.065963, 0.065986, 99.964763
0.120000, 0.065963, 0.065986, 99.964104
0.122500, 0.065962, 0.065986, 99.963500
0.125000, 0.065962, 0.065986, 99.962947
0.127500, 0.065961, 0.065986, 99.962437
0.130000, 0.065961, 0.065986, 99.961966
0.132500, 0.065961, 0.065986, 99.961531
0.135000, 0.065961, 0.065986, 99.961132
0.137500, 0.065960, 0.065986, 99.960769
0.140000, 0.065960, 0.065986, 99.960378
0.142500, 0.065960, 0.065986, 99.960044
0.145000, 0.065960, 0.065986, 99.959806
0.147500, 0.065960, 0.065986, 99.959593
0.150000, 0.065959, 0.065986, 99.959409
0.152500, 0.065959, 0.065986, 99.959251
0.155000, 0.065959, 0.065986, 99.959122
0.157500, 0.065959, 0.065986, 99.959011
0.160000, 0.065959, 0.065986, 99.958886
0.162500, 0.065959, 0.065986, 99.958756
0.165000, 0.065959, 0.065986, 99.958590
0.167500, 0.065959, 0.065986, 99.958412
0.170000, 0.065959, 0.065986, 99.958185
0.172500, 0.065958, 0.065986, 99.957938
0.175000, 0.065958, 0.065986, 99.957646
0.177500, 0.065958, 0.065986, 99.957310
0.180000, 0.065958, 0.065986, 99.956931
0.182500, 0.065958, 0.065986, 99.956507
0.185000, 0.065957, 0.065986, 99.956039
0.187500, 0.065957, 0.065986, 99.955526
0.190000, 0.065957, 0.065986, 99.954971
0.192500, 0.065956, 0.065986, 99.954370
0.195000, 0.065956, 0.065986, 99.953722
0.197500, 0.065955, 0.065986, 99.953031
0.200000, 0.065955, 0.065986, 99.952306
0.202500, 0.065954, 0.065986, 99.951553
0.205000, 0.065954, 0.065986, 99.950776
0.207500, 0.065953, 0.065986, 99.949986
0.210000, 0.065953, 0.065986, 99.949193
0.212500, 0.065952, 0.065986, 99.948412
0.215000, 0.065952, 0.065986, 99.947655
0.217500, 0.065951, 0.065986, 99.946938
0.220000, 0.065951, 0.065986, 99.946279
0.222500, 0.065950, 0.065986, 99.945701
0.225000, 0.065950, 0.065986, 99.945217
0.227500, 0.065950, 0.065986, 99.944824
0.230000, 0.065950, 0.065986, 99.944484
0.232500, 0.065949, 0.065986, 99.944187
0.235000, 0.065949, 0.065986, 99.943954
0.237500, 0.065949, 0.065986, 99.943768
0.240000, 0.065949, 0.065986, 99.943613
0.242500, 0.065949, 0.065986, 99.943485
0.245000, 0.065949, 0.065986, 99.943398
0.247500, 0.065949, 0.065986, 99.943353
0.250000, 0.065949, 0.065986, 99.943315
0.252500, 0.065949, 0.065986, 99.943279
0.255000, 0.065949, 0.065986, 99.943247
0.257500, 0.065949, 0.065986, 99.943226
0.260000, 0.065949, 0.065986, 99.943226
0.262500, 0.065949, 0.065986, 99.943259
0.265000, 0.065949, 0.065986, 99.943342
0.267500, 0.065949, 0.065986, 99.943467
0.270000, 0.065949, 0.065986, 99.943591
0.272500, 0.065949, 0.065986, 99.943722
0.275000, 0.065949, 0.065986, 99.943876
0.277500, 0.065949, 0.065986, 99.944077
0.280000, 0.065950, 0.065986, 99.944347
0.282500, 0.065950, 0.065986, 99.944708
0.285000, 0.065950, 0.065986, 99.945184
0.287500, 0.065950, 0.065986, 99.945799
0.290000, 0.065951, 0.065986, 99.946577
0.292500, 0.065952, 0.065986, 99.947483
0.295000, 0.065952, 0.065986, 99.948485
0.297500, 0.065953, 0.065986, 99.949590
0.300000, 0.065954, 0.065986, 99.950798
0.302500, 0.065955, 0.065986, 99.952092
0.305000, 0.065956, 0.065986, 99.953450
0.307500, 0.065956, 0.065986, 99.954825
0.310000, 0.065957, 0.065986, 99.956193
0.312500, 0.065958, 0.065986, 99.957512
0.315000, 0.065959, 0.065986, 99.958736
0.317500, 0.065960, 0.065986, 99.959993
0.320000, 0.065961, 0.065986, 99.961214
0.322500, 0.065961, 0.065986, 99.962383
0.325000, 0.065962, 0.065986, 99.963463
0.327500, 0.065963, 0.065986, 99.964355
0.330000, 0.065963, 0.065986, 99.965044
0.332500, 0.065963, 0.065986, 99.965517
0.335000, 0.065964, 0.065986, 99.965774
0.337500, 0.065964, 0.065986, 99.965810
0.340000, 0.065964, 0.065986, 99.965629
0.342500, 0.065963, 0.065986, 99.965252
0.345000, 0.065963, 0.065986, 99.964715
0.347500, 0.065963, 0.065986, 99.964032
0.350000, 0.065962, 0.065986, 99.963190
0.352500, 0.065961, 0.065986, 99.962196
0.355000, 0.065961, 0.065986, 99.961069
0.357500, 0.065960, 0.065986, 99.959828
0.360000, 0.065959, 0.065986, 99.958498
0.362500, 0.065958, 0.065986, 99.957127
0.365000, 0.065957, 0.065986, 99.955744
0.367500, 0.065956, 0.065986, 99.954296
0.370000, 0.065955, 0.065986, 99.952773
0.372500, 0.065954, 0.065986, 99.951188
0.375000, 0.065953, 0.065986, 99.949561
0.377500, 0.065952, 0.065986, 99.947929
0.380000, 0.065951, 0.065986, 99.946321
0.382500, 0.065950, 0.065986, 99.944761
0.385000, 0.065949, 0.065986, 99.943270
0.387500, 0.065948, 0.065986, 99.941814
0.390000, 0.065947, 0.065986, 99.940438
0.392500, 0.065946, 0.065986, 99.939204
0.395000, 0.065945, 0.065986, 99.938117
0.397500, 0.065945, 0.065986, 99.937194
0.400000, 0.065944, 0.065986, 99.936440
0.402500, 0.065944, 0.065986, 99.935857
0.405000, 0.065944, 0.065986, 99.935422
0.407500, 0.065943, 0.065986, 99.935106
0.410000, 0.065943, 0.065986, 99.934904
0.412500, 0.065943, 0.065986, 99.934795
0.415000, 0.065943, 0.065986, 99.934798
0.417500, 0.065943, 0.065986, 99.934973
0.420000, 0.065944, 0.065986, 99.935352
0.422500, 0.065944, 0.065986, 99.935930
0.425000, 0.065944, 0.065986, 99.936644
0.427500, 0.065945, 0.065986, 99.937493
0.430000, 0.065946, 0.065986, 99.938484
0.432500, 0.065946, 0.065986, 99.939570
0.435000, 0.065947, 0.065986, 99.940685
0.437500, 0.065948, 0.065986, 99.941863
0.440000, 0.065949, 0.065986, 99.943115
0.442500, 0.065950, 0.065986, 99.944439
0.445000, 0.065950, 0.065986, 99.945830
0.447500, 0.065951, 0.065986, 99.947287
0.450000, 0.065952, 0.065986, 99.948813
0.452500, 0.065954, 0.065986, 99.950473
0.455000, 0.065955, 0.065986, 99.952288
0.457500, 0.065956, 0.065986, 99.954232
0.460000, 0.065957, 0.065986, 99.956223
0.462500, 0.065959, 0.065986, 99.958226
0.465000, 0.065960, 0.065986, 99.960197
0.467500, 0.065961, 0.065986, 99.962100
0.470000, 0.065962, 0.065986, 99.963902
0.472500, 0.065964, 0.065986, 99.965607
0.475000, 0.065965, 0.065986, 99.967202
0.477500, 0.065966, 0.065986, 99.968579
0.480000, 0.065966, 0.065986, 99.969655
0.482500, 0.065967, 0.065986, 99.970420
0.485000, 0.065967, 0.065986, 99.970831
0.487500, 0.065967, 0.065986, 99.970902
0.490000, 0.065967, 0.065986, 99.970681
0.492500, 0.065967, 0.065986, 99.970215
0.495000, 0.065966, 0.065986, 99.969514
0.497500, 0.065966, 0.065986, 99.968613
0.500000, 0.065965, 0.065986, 99.967564
0.502500, 0.065964, 0.065986, 99.966340
0.505000, 0.065963, 0.065986, 99.964912
0.507500, 0.065962, 0.065986, 99.963301
0.510000, 0.065961, 0.065986, 99.961536
0.512500, 0.065960, 0.065986, 99.959628
0.515000, 0.065958, 0.065986, 99.957609
0.517500, 0.065957, 0.065986, 99.955523
0.520000, 0.065955, 0.065986, 99.953386
0.522500, 0.065954, 0.065986, 99.951211
0.525000, 0.065953, 0.065986, 99.949011
0.527500, 0.065951, 0.065986, 99.946800
0.530000, 0.065950, 0.065986, 99.944630
0.532500, 0.065948, 0.065986, 99.942604
0.535000, 0.065947, 0.065986, 99.940710
0.537500, 0.065946, 0.065986, 99.938927
0.540000, 0.065945, 0.065986, 99.937261
0.542500, 0.065944, 0.065986, 99.935709
0.545000, 0.065943, 0.065986, 99.934297
0.547500, 0.065942, 0.065986, 99.933084
0.550000, 0.065941, 0.065986, 99.932086
0.552500, 0.065941, 0.065986, 99.931299
0.555000, 0.065941, 0.065986, 99.930723
0.557500, 0.065940, 0.065986, 99.930334
0.560000, 0.065940, 0.065986, 99.930177
0.562500, 0.065940, 0.065986, 99.930208
0.565000, 0.065940, 0.065986, 99.930368
0.567500, 0.065940, 0.065986, 99.930645
0.570000, 0.065941, 0.065986, 99.931016
0.572500, 0.065941, 0.065986, 99.931492
0.575000, 0.065941, 0.065986, 99.932123
0.577500, 0.065942, 0.065986, 99.932922
0.580000, 0.065943, 0.065986, 99.933860
0.582500, 0.065943, 0.065986, 99.934857
0.585000, 0.065944, 0.065986, 99.935888
0.587500, 0.065945, 0.065986, 99.936940
0.590000, 0.065945, 0.065986, 99.938018
0.592500, 0.065946, 0.065986, 99.939121
0.595000, 0.065947, 0.065986, 99.940238
0.597500, 0.065948, 0.065986, 99.941333
0.600000, 0.065948, 0.065986, 99.942401
0.602500, 0.065949, 0.065986, 99.943488
0.605000, 0.065950, 0.065986, 99.944580
0.607500, 0.065950, 0.065986, 99.945658
0.610000, 0.065951, 0.065986, 99.946708
0.612500, 0.065952, 0.065986, 99.947708
0.615000, 0.065952, 0.065986, 99.948685
0.617500, 0.065953, 0.065986, 99.949685
0.620000, 0.065954, 0.065986, 99.950682
0.622500, 0.065954, 0.065986, 99.951664
0.625000, 0.065955, 0.065986, 99.952605
0.627500, 0.065956, 0.065986, 99.953509
0.630000, 0.065956, 0.065986, 99.954398
0.632500, 0.065957, 0.065986, 99.955237
0.635000, 0.065957, 0.065986, 99.955914
0.637500, 0.065957, 0.065986, 99.956388
0.640000, 0.065958, 0.065986, 99.956654
0.642500, 0.065958, 0.065986, 99.956705
0.645000, 0.065958, 0.065986, 99.956577
0.647500, 0.065957, 0.065986, 99.956308
0.650000, 0.065957, 0.065986, 99.955861
0.652500, 0.065957, 0.065986, 99.955245
0.655000, 0.065956, 0.065986, 99.954458
0.657500, 0.065956, 0.065986, 99.953503
0.660000, 0.065955, 0.065986, 99.952418
0.662500, 0.065954, 0.065986, 99.951239
0.665000, 0.065953, 0.065986, 99.950019
0.667500, 0.065952, 0.065986, 99.948730
0.670000, 0.065952, 0.065986, 99.947368
0.672500, 0.065951, 0.065986, 99.945930
0.675000, 0.065950, 0.065986, 99.944463
0.677500, 0.065949, 0.065986, 99.943014
0.680000, 0.065948, 0.065986, 99.941577
0.682500, 0.065947, 0.065986, 99.940145
0.685000, 0.065946, 0.065986, 99.938726
0.687500, 0.065945, 0.065986, 99.937310
0.690000, 0.065944, 0.065986, 99.935958
0.692500, 0.065943, 0.065986, 99.934697
0.695000, 0.065942, 0.065986, 99.933479
0.697500, 0.065942, 0.065986, 99.932304
0.700000, 0.065941, 0.065986, 99.931190
0.702500, 0.065940, 0.065986, 99.930134
0.705000, 0.065939, 0.065986, 99.929123
0.707500, 0.065939, 0.065986, 99.928147
0.710000, 0.065938, 0.065986, 99.927232
0.712500, 0.065938, 0.065986, 99.926371
0.715000, 0.065937, 0.065986, 99.925529
0.717500, 0.065937, 0.065986, 99.924710
0.720000, 0.065936, 0.065986, 99.923902
0.722500, 0.065936, 0.065986, 99.923184
0.725000, 0.065935, 0.065986, 99.922582
0.727500, 0.065935, 0.065986, 99.922033
0.730000, 0.065934, 0.065986, 99.921535
0.732500, 0.065934, 0.065986, 99.921094
0.735000, 0.065934, 0.065986, 99.920739
0.737500, 0.065934, 0.065986, 99.920619
0.740000, 0.065934, 0.065986, 99.920748
0.742500, 0.065934, 0.065986, 99.921084
0.745000, 0.065934, 0.065986, 99.921533
0.747500, 0.065935, 0.065986, 99.922055
0.750000, 0.065935, 0.065986, 99.922640
0.752500, 0.065936, 0.065986, 99.923281
0.755000, 0.065936, 0.065986, 99.923968
0.757500, 0.065937, 0.065986, 99.924670
0.760000, 0.065937, 0.065986, 99.925363
0.762500, 0.065937, 0.065986, 99.926071
0.765000, 0.065938, 0.065986, 99.926829
0.767500, 0.065938, 0.065986, 99.927608
0.770000, 0.065939, 0.065986, 99.928386
0.772500, 0.065939, 0.065986, 99.929136
0.775000, 0.065940, 0.065986, 99.929852
0.777500, 0.065940, 0.065986, 99.930627
0.780000, 0.065941, 0.065986, 99.931448
0.782500, 0.065942, 0.065986, 99.932275
0.785000, 0.065942, 0.065986, 99.933124
0.787500, 0.065943, 0.065986, 99.933979
0.790000, 0.065943, 0.065986, 99.934807
0.792500, 0.065944, 0.065986, 99.935594
0.795000, 0.065944, 0.065986, 99.936354
0.797500, 0.065945, 0.065986, 99.937023
0.800000, 0.065945, 0.065986, 99.937572
0.802500, 0.065945, 0.065986, 99.938022
0.805000, 0.065946, 0.065986, 99.938338
0.807500, 0.065946, 0.065986, 99.938509
0.810000, 0.065946, 0.065986, 99.938522
0.812500, 0.065946, 0.065986, 99.938366
0.815000, 0.065945, 0.065986, 99.938025
0.817500, 0.065945, 0.065986, 99.937510
0.820000, 0.065945, 0.065986, 99.936881
0.822500, 0.065944, 0.065986, 99.936190
0.825000, 0.065944, 0.065986, 99.935399
0.827500, 0.065943, 0.065986, 99.934474
0.830000, 0.065942, 0.065986, 99.933344
0.832500, 0.065941, 0.065986, 99.932003
0.835000, 0.065940, 0.065986, 99.930475
0.837500, 0.065939, 0.065986, 99.928806
0.840000, 0.065938, 0.065986, 99.927000
0.842500, 0.065937, 0.065986, 99.925059
0.845000, 0.065935, 0.065986, 99.922996
0.847500, 0.065934, 0.065986, 99.920840
0.850000, 0.065933, 0.065986, 99.918706
0.852500, 0.065931, 0.065986, 99.916711
0.855000, 0.065930, 0.065986, 99.914874
0.857500, 0.065929, 0.065986, 99.913190
0.860000, 0.065928, 0.065986, 99.911655
0.862500, 0.065927, 0.065986, 99.910253
0.865000, 0.065926, 0.065986, 99.908986
0.867500, 0.065925, 0.065986, 99.907827
0.870000, 0.065925, 0.065986, 99.906777
0.872500, 0.065924, 0.065986, 99.905839
0.875000, 0.065924, 0.065986, 99.904970
0.877500, 0.065923, 0.065986, 99.904133
0.880000, 0.065922, 0.065986, 99.903320
0.882500, 0.065922, 0.065986, 99.902532
0.885000, 0.065921, 0.065986, 99.901838
0.887500, 0.065921, 0.065986, 99.901294
0.890000, 0.065921, 0.065986, 99.900898
0.892500, 0.065921, 0.065986, 99.900626
0.895000, 0.065921, 0.065986, 99.900481
0.897500, 0.065921, 0.065986, 99.900526
0.900000, 0.065921, 0.065986, 99.900802
0.902500, 0.065921, 0.065986, 99.901266
0.905000, 0.065922, 0.065986, 99.901899
0.907500, 0.065922, 0.065986, 99.902667
0.910000, 0.065923, 0.065986, 99.903505
0.912500, 0.065923, 0.065986, 99.904352
0.915000, 0.065924, 0.065986, 99.905176
0.917500, 0.065924, 0.065986, 99.905949
0.920000, 0.065925, 0.065986, 99.906650
0.922500, 0.065925, 0.065986, 99.907258
0.925000, 0.065925, 0.065986, 99.907821
0.927500, 0.065926, 0.065986, 99.908357
0.930000, 0.065926, 0.065986, 99.908839
0.932500, 0.065926, 0.065986, 99.909240
0.935000, 0.065927, 0.065986, 99.909532
0.937500, 0.065927, 0.065986, 99.909739
0.940000, 0.065927, 0.065986, 99.909994
0.942500, 0.065927, 0.065986, 99.910340
0.945000, 0.065927, 0.065986, 99.910765
0.947500, 0.065928, 0.065986, 99.911244
0.950000, 0.065928, 0.065986, 99.911755
0.952500, 0.065928, 0.065986, 99.912304
0.955000, 0.065929, 0.065986, 99.912875
0.957500, 0.065929, 0.065986, 99.913479
0.960000, 0.065930, 0.065986, 99.914101
0.962500, 0.065930, 0.065986, 99.914626
0.965000, 0.065930, 0.065986, 99.915008
0.967500, 0.065930, 0.065986, 99.915235
0.970000, 0.065930, 0.065986, 99.915276
0.972500, 0.065930, 0.065986, 99.915155
0.975000, 0.065930, 0.065986, 99.914893
0.977500, 0.065930, 0.065986, 99.914491
0.980000, 0.065929, 0.065986, 99.913965
0.982500, 0.065929, 0.065986, 99.913352
0.985000, 0.065929, 0.065986, 99.912643
0.987500, 0.065928, 0.065986, 99.911815
0.990000, 0.065927, 0.065986, 99.910862
0.992500, 0.065927, 0.065986, 99.909778
0.995000, 0.065926, 0.065986, 99.908571
0.997500, 0.065925, 0.065986, 99.907249
1.000000, 0.065924, 0.065986, 99.905936
1.002500, 0.065923, 0.065986, 99.904430
1.005000, 0.065922, 0.065986, 99.902858
1.007500, 0.065921, 0.065986, 99.901280
1.010000, 0.065920, 0.065986, 99.899779
1.012500, 0.065919, 0.065986, 99.898442
1.015000, 0.065918, 0.065986, 99.897250
1.017500, 0.065918, 0.065986, 99.896167
1.020000, 0.065917, 0.065986, 99.895171
1.022500, 0.065916, 0.065986, 99.894249
1.025000, 0.065916, 0.065986, 99.893512
1.027500, 0.065915, 0.065986, 99.892636
1.030000, 0.065915, 0.065986, 99.891804
1.032500, 0.065914, 0.065986, 99.890995
1.035000, 0.065914, 0.065986, 99.890214
1.037500, 0.065913, 0.065986, 99.889454
1.040000, 0.065913, 0.065986, 99.888708
1.042500, 0.065912, 0.065986, 99.887975
1.045000, 0.065912, 0.065986, 99.887236
1.047500, 0.065911, 0.065986, 99.886565
1.050000, 0.065911, 0.065986, 99.886023
1.052500, 0.065911, 0.065986, 99.885632
1.055000, 0.065911, 0.065986, 99.885421
1.057500, 0.065911, 0.065986, 99.885351
1.060000, 0.065911, 0.065986, 99.885384
1.062500, 0.065911, 0.065986, 99.885568
1.065000, 0.065911, 0.065986, 99.885936
1.067500, 0.065911, 0.065986, 99.886454
1.070000, 0.065912, 0.065986, 99.887091
1.072500, 0.065912, 0.065986, 99.887818
1.075000, 0.065913, 0.065986, 99.888579
1.077500, 0.065913, 0.065986, 99.889309
1.080000, 0.065914, 0.065986, 99.889973
1.082500, 0.065914, 0.065986, 99.890532
1.085000, 0.065914, 0.065986, 99.890966
1.087500, 0.065915, 0.065986, 99.891325
1.090000, 0.065915, 0.065986, 99.891638
1.092500, 0.065915, 0.065986, 99.891880
1.095000, 0.065915, 0.065986, 99.892025
1.097500, 0.065915, 0.065986, 99.892056
1.100000, 0.065915, 0.065986, 99.892079
1.102500, 0.065915, 0.065986, 99.892292
1.105000, 0.065915, 0.065986, 99.892717
1.107500, 0.065916, 0.065986, 99.893329
1.110000, 0.065916, 0.065986, 99.894044
1.112500, 0.065917, 0.065986, 99.894816
1.115000, 0.065917, 0.065986, 99.895621
1.117500, 0.065918, 0.065986, 99.896500
1.120000, 0.065919, 0.065986, 99.897407
1.122500, 0.065919, 0.065986, 99.898305
1.125000, 0.065920, 0.065986, 99.899158
1.127500, 0.065920, 0.065986, 99.899909
1.130000, 0.065921, 0.065986, 99.900527
1.132500, 0.065921, 0.065986, 99.901005
1.135000, 0.065921, 0.065986, 99.901357
1.137500, 0.065921, 0.065986, 99.901553
1.140000, 0.065921, 0.065986, 99.901574
1.142500, 0.065921, 0.065986, 99.901447
1.145000, 0.065921, 0.065986, 99.901204
1.147500, 0.065921, 0.065986, 99.900831
1.150000, 0.065920, 0.065986, 99.900315
1.152500, 0.065920, 0.065986, 99.899643
1.155000, 0.065919, 0.065986, 99.898801
1.157500, 0.065919, 0.065986, 99.897847
1.160000, 0.065918, 0.065986, 99.896799
1.162500, 0.065917, 0.065986, 99.895651
1.165000, 0.065917, 0.065986, 99.894400
1.167500, 0.065916, 0.065986, 99.893112
1.170000, 0.065915, 0.065986, 99.891815
1.172500, 0.065914, 0.065986, 99.890618
1.175000, 0.065913, 0.065986, 99.889564
1.177500, 0.065913, 0.065986, 99.888625
1.180000, 0.065912, 0.065986, 99.887757
1.182500, 0.065912, 0.065986, 99.886939
1.185000, 0.065911, 0.065986, 99.886157
1.187500, 0.065911, 0.065986, 99.885406
1.190000, 0.065910, 0.065986, 99.884672
1.192500, 0.065910, 0.065986, 99.883959
1.195000, 0.065909, 0.065986, 99.883255
1.197500, 0.065909, 0.065986, 99.882555
1.200000, 0.065908, 0.065986, 99.881861
1.202500, 0.065908, 0.065986, 99.881192
1.205000, 0.065907, 0.065986, 99.880525
1.207500, 0.065907, 0.065986, 99.879824
1.210000, 0.065906, 0.065986, 99.879099
1.212500, 0.065906, 0.065986, 99.878440
1.215000, 0.065906, 0.065986, 99.877908
1.217500, 0.065905, 0.065986, 99.877543
1.220000, 0.065905, 0.065986, 99.877305
1.222500, 0.065905, 0.065986, 99.877169
1.225000, 0.065905, 0.065986, 99.877160
1.227500, 0.065905, 0.065986, 99.877311
1.230000, 0.065905, 0.065986, 99.877602
1.232500, 0.065906, 0.065986, 99.878003
1.235000, 0.065906, 0.065986, 99.878479
1.237500, 0.065906, 0.065986, 99.878988
1.240000, 0.065907, 0.065986, 99.879460
1.242500, 0.065907, 0.065986, 99.879854
1.245000, 0.065907, 0.065986, 99.880137
1.247500, 0.065907, 0.065986, 99.880296
1.250000, 0.065907, 0.065986, 99.880346
1.252500, 0.065907, 0.065986, 99.880339
1.255000, 0.065907, 0.065986, 99.880283
1.257500, 0.065907, 0.065986, 99.880225
1.260000, 0.065907, 0.065986, 99.880165
1.262500, 0.065907, 0.065986, 99.880184
1.265000, 0.065907, 0.065986, 99.880421
1.267500, 0.065908, 0.065986, 99.880897
1.270000, 0.065908, 0.065986, 99.881574
1.272500, 0.065909, 0.065986, 99.882387
1.275000, 0.065909, 0.065986, 99.883286
1.277500, 0.065910, 0.065986, 99.884302
1.280000, 0.065911, 0.065986, 99.885426
1.282500, 0.065911, 0.065986, 99.886633
1.285000, 0.065912, 0.065986, 99.887891
1.287500, 0.065913, 0.065986, 99.889149
1.290000, 0.065914, 0.065986, 99.890323
1.292500, 0.065915, 0.065986, 99.891371
1.295000, 0.065915, 0.065986, 99.892287
1.297500, 0.065916, 0.065986, 99.893038
1.300000, 0.065916, 0.065986, 99.893599
1.302500, 0.065916, 0.065986, 99.893952
1.305000, 0.065916, 0.065986, 99.894123
1.307500, 0.065916, 0.065986, 99.894143
1.310000, 0.065916, 0.065986, 99.894009
1.312500, 0.065916, 0.065986, 99.893704
1.315000, 0.065916, 0.065986, 99.893222
1.317500, 0.065915, 0.065986, 99.892557
1.320000, 0.065915, 0.065986, 99.891748
1.322500, 0.065914, 0.065986, 99.890844
1.325000, 0.065914, 0.065986, 99.889843
1.327500, 0.065913, 0.065986, 99.888806
1.330000, 0.065912, 0.065986, 99.887739
1.332500, 0.065911, 0.065986, 99.886654
1.335000, 0.065911, 0.065986, 99.885656
1.337500, 0.065910, 0.065986, 99.884761
1.340000, 0.065910, 0.065986, 99.883966
1.342500, 0.065909, 0.065986, 99.883227
1.345000, 0.065909, 0.065986, 99.882535
1.347500, 0.065908, 0.065986, 99.881898
1.350000, 0.065908, 0.065986, 99.881310
1.352500, 0.065908, 0.065986, 99.880740
1.355000, 0.065907, 0.065986, 99.880165
1.357500, 0.065907, 0.065986, 99.879579
1.360000, 0.065906, 0.065986, 99.878928
1.362500, 0.065906, 0.065986, 99.878205
1.365000, 0.065905, 0.065986, 99.877432
1.367500, 0.065905, 0.065986, 99.876617
1.370000, 0.065904, 0.065986, 99.875764
1.372500, 0.065904, 0.065986, 99.874852
1.375000, 0.065903, 0.065986, 99.873892
1.377500, 0.065902, 0.065986, 99.873037
1.380000, 0.065902, 0.065986, 99.872356
1.382500, 0.065902, 0.065986, 99.871805
1.385000, 0.065901, 0.065986, 99.871385
1.387500, 0.065901, 0.065986, 99.871067
1.390000, 0.065901, 0.065986, 99.870887
1.392500, 0.065901, 0.065986, 99.870843
1.395000, 0.065901, 0.065986, 99.870910
1.397500, 0.065901, 0.065986, 99.871047
1.400000, 0.065901, 0.065986, 99.871220
1.402500, 0.065901, 0.065986, 99.871404
1.405000, 0.065901, 0.065986, 99.871546
1.407500, 0.065902, 0.065986, 99.871609
1.410000, 0.065902, 0.065986, 99.871577
1.412500, 0.065901, 0.065986, 99.871451
1.415000, 0.065901, 0.065986, 99.871318
1.417500, 0.065901, 0.065986, 99.871250
1.420000, 0.065901, 0.065986, 99.871249
1.422500, 0.065901, 0.065986, 99.871313
1.425000, 0.065901, 0.065986, 99.871445
1.427500, 0.065902, 0.065986, 99.871714
1.430000, 0.065902, 0.065986, 99.872230
1.432500, 0.065902, 0.065986, 99.872971
1.435000, 0.065903, 0.065986, 99.873885
1.437500, 0.065904, 0.065986, 99.874919
1.440000, 0.065905, 0.065986, 99.876125
1.442500, 0.065905, 0.065986, 99.877477
1.445000, 0.065906, 0.065986, 99.878919
1.447500, 0.065907, 0.065986, 99.880409
1.450000, 0.065908, 0.065986, 99.881909
1.452500, 0.065909, 0.065986, 99.883342
1.455000, 0.065910, 0.065986, 99.884645
1.457500, 0.065911, 0.065986, 99.885805
1.460000, 0.065912, 0.065986, 99.886794
1.462500, 0.065912, 0.065986, 99.887586
1.465000, 0.065912, 0.065986, 99.888162
1.467500, 0.065913, 0.065986, 99.888517
1.470000, 0.065913, 0.065986, 99.888699
1.472500, 0.065913, 0.065986, 99.888719
1.475000, 0.065913, 0.065986, 99.888565
1.477500, 0.065912, 0.065986, 99.888222
1.480000, 0.065912, 0.065986, 99.887673
1.482500, 0.065912, 0.065986, 99.886958
1.485000, 0.065911, 0.065986, 99.886132
1.487500, 0.065911, 0.065986, 99.885234
1.490000, 0.065910, 0.065986, 99.884309
1.492500, 0.065909, 0.065986, 99.883348
1.495000, 0.065909, 0.065986, 99.882345
1.497500, 0.065908, 0.065986, 99.881375
1.500000, 0.065907, 0.065986, 99.880517
1.502500, 0.065907, 0.065986, 99.879760
1.505000, 0.065906, 0.065986, 99.879102
1.507500, 0.065906, 0.065986, 99.878505
1.510000, 0.065906, 0.065986, 99.877956
1.512500, 0.065905, 0.065986, 99.877405
1.515000, 0.065905, 0.065986, 99.876851
1.517500, 0.065905, 0.065986, 99.876273
1.520000, 0.065904, 0.065986, 99.875668
1.522500, 0.065904, 0.065986, 99.875012
1.525000, 0.065903, 0.065986, 99.874298
1.527500, 0.065903, 0.065986, 99.873513
1.530000, 0.065902, 0.065986, 99.872677
1.532500, 0.065902, 0.065986, 99.871782
1.535000, 0.065901, 0.065986, 99.870836
1.537500, 0.065900, 0.065986, 99.869804
1.540000, 0.065900, 0.065986, 99.868747
1.542500, 0.065899, 0.065986, 99.867866
1.545000, 0.065899, 0.065986, 99.867125
1.547500, 0.065898, 0.065986, 99.866515
1.550000, 0.065898, 0.065986, 99.866009
1.552500, 0.065898, 0.065986, 99.865592
1.555000, 0.065897, 0.065986, 99.865314
1.557500, 0.065897, 0.065986, 99.865171
1.560000, 0.065897, 0.065986, 99.865123
1.562500, 0.065897, 0.065986, 99.865148
1.565000, 0.065897, 0.065986, 99.865211
1.567500, 0.065897, 0.065986, 99.865289
1.570000, 0.065897, 0.065986, 99.865339
1.572500, 0.065897, 0.065986, 99.865332
1.575000, 0.065897, 0.065986, 99.865253
1.577500, 0.065897, 0.065986, 99.865136
1.580000, 0.065897, 0.065986, 99.865053
1.582500, 0.065897, 0.065986, 99.865058
1.585000, 0.065897, 0.065986, 99.865130
1.587500, 0.065897, 0.065986, 99.865288
1.590000, 0.065898, 0.065986, 99.865517
1.592500, 0.065898, 0.065986, 99.865894
1.595000, 0.065898, 0.065986, 99.866506
1.597500, 0.065899, 0.065986, 99.867327
1.600000, 0.065899, 0.065986, 99.868322
1.602500, 0.065900, 0.065986, 99.869533
1.605000, 0.065901, 0.065986, 99.870913
1.607500, 0.065902, 0.065986, 99.872410
1.610000, 0.065903, 0.065986, 99.873973
1.612500, 0.065904, 0.065986, 99.875553
1.615000, 0.065905, 0.065986, 99.877097
1.617500, 0.065906, 0.065986, 99.878540
1.620000, 0.065907, 0.065986, 99.879845
1.622500, 0.065908, 0.065986, 99.880978
1.625000, 0.065908, 0.065986, 99.881920
1.627500, 0.065909, 0.065986, 99.882633
1.630000, 0.065909, 0.065986, 99.883121
1.632500, 0.065909, 0.065986, 99.883402
1.635000, 0.065909, 0.065986, 99.883518
1.637500, 0.065909, 0.065986, 99.883497
1.640000, 0.065909, 0.065986, 99.883326
1.642500, 0.065909, 0.065986, 99.882972
1.645000, 0.065909, 0.065986, 99.882424
1.647500, 0.065908, 0.065986, 99.881730
1.650000, 0.065908, 0.065986, 99.880962
1.652500, 0.065907, 0.065986, 99.880209
1.655000, 0.065907, 0.065986, 99.879425
1.657500, 0.065906, 0.065986, 99.878542
1.660000, 0.065905, 0.065986, 99.877604
1.662500, 0.065905, 0.065986, 99.876738
1.665000, 0.065904, 0.065986, 99.876010
1.667500, 0.065904, 0.065986, 99.875402
1.670000, 0.065904, 0.065986, 99.874856
1.672500, 0.065903, 0.065986, 99.874361
1.675000, 0.065903, 0.065986, 99.873883
1.677500, 0.065903, 0.065986, 99.873405
1.680000, 0.065902, 0.065986, 99.872907
1.682500, 0.065902, 0.065986, 99.872381
1.685000, 0.065902, 0.065986, 99.871816
1.687500, 0.065901, 0.065986, 99.871190
1.690000, 0.065901, 0.065986, 99.870482
1.692500, 0.065900, 0.065986, 99.869693
1.695000, 0.065900, 0.065986, 99.868844
1.697500, 0.065899, 0.065986, 99.867950
1.700000, 0.065898, 0.065986, 99.867009
1.702500, 0.065898, 0.065986, 99.865989
1.705000, 0.065897, 0.065986, 99.864947
1.707500, 0.065897, 0.065986, 99.864038
1.710000, 0.065896, 0.065986, 99.863252
1.712500, 0.065896, 0.065986, 99.862583
1.715000, 0.065895, 0.065986, 99.862003
1.717500, 0.065895, 0.065986, 99.861526
1.720000, 0.065895, 0.065986, 99.861179
1.722500, 0.065894, 0.065986, 99.860957
1.725000, 0.065894, 0.065986, 99.860812
1.727500, 0.065894, 0.065986, 99.860690
1.730000, 0.065894, 0.065986, 99.860665
1.732500, 0.065894, 0.065986, 99.860664
1.735000, 0.065894, 0.065986, 99.860647
1.737500, 0.065894, 0.065986, 99.860564
1.740000, 0.065894, 0.065986, 99.860444
1.742500, 0.065894, 0.065986, 99.860291
1.745000, 0.065894, 0.065986, 99.860195
1.747500, 0.065894, 0.065986, 99.860177
1.750000, 0.065894, 0.065986, 99.860230
1.752500, 0.065894, 0.065986, 99.860367
1.755000, 0.065894, 0.065986, 99.860571
1.757500, 0.065894, 0.065986, 99.860907
1.760000, 0.065895, 0.065986, 99.861469
1.762500, 0.065895, 0.065986, 99.862259
1.765000, 0.065896, 0.065986, 99.863275
1.767500, 0.065897, 0.065986, 99.864523
1.770000, 0.065898, 0.065986, 99.865933
1.772500, 0.065899, 0.065986, 99.867452
1.775000, 0.065900, 0.065986, 99.869030
1.777500, 0.065901, 0.065986, 99.870606
1.780000, 0.065902, 0.065986, 99.872131
1.782500, 0.065903, 0.065986, 99.873576
1.785000, 0.065904, 0.065986, 99.874883
1.787500, 0.065904, 0.065986, 99.876017
1.790000, 0.065905, 0.065986, 99.876964
1.792500, 0.065906, 0.065986, 99.877716
1.795000, 0.065906, 0.065986, 99.878269
1.797500, 0.065906, 0.065986, 99.878647
1.800000, 0.065906, 0.065986, 99.878880
1.802500, 0.065906, 0.065986, 99.878963
1.805000, 0.065906, 0.065986, 99.878880
1.807500, 0.065906, 0.065986, 99.878614
1.810000, 0.065906, 0.065986, 99.878164
1.812500, 0.065905, 0.065986, 99.877556
1.815000, 0.065905, 0.065986, 99.876882
1.817500, 0.065905, 0.065986, 99.876184
1.820000, 0.065904, 0.065986, 99.875445
1.822500, 0.065904, 0.065986, 99.874648
1.825000, 0.065903, 0.065986, 99.873802
1.827500, 0.065902, 0.065986, 99.873032
1.830000, 0.065902, 0.065986, 99.872393
1.832500, 0.065902, 0.065986, 99.871874
1.835000, 0.065901, 0.065986, 99.871429
1.837500, 0.065901, 0.065986, 99.871027
1.840000, 0.065901, 0.065986, 99.870639
1.842500, 0.065901, 0.065986, 99.870247
1.845000, 0.065900, 0.065986, 99.869831
1.847500, 0.065900, 0.065986, 99.869398
1.850000, 0.065900, 0.065986, 99.868932
1.852500, 0.065899, 0.065986, 99.868422
1.855000, 0.065899, 0.065986, 99.867834
1.857500, 0.065899, 0.065986, 99.867154
1.860000, 0.065898, 0.065986, 99.866400
1.862500, 0.065898, 0.065986, 99.865568
1.865000, 0.065897, 0.065986, 99.864629
1.867500, 0.065896, 0.065986, 99.863579
1.870000, 0.065896, 0.065986, 99.862483
1.872500, 0.065895, 0.065986, 99.861488
1.875000, 0.065894, 0.065986, 99.860629
1.877500, 0.065894, 0.065986, 99.859884
1.880000, 0.065893, 0.065986, 99.859246
1.882500, 0.065893, 0.065986, 99.858685
1.885000, 0.065893, 0.065986, 99.858214
1.887500, 0.065892, 0.065986, 99.857859
1.890000, 0.065892, 0.065986, 99.857596
1.892500, 0.065892, 0.065986, 99.857408
1.895000, 0.065892, 0.065986, 99.857282
1.897500, 0.065892, 0.065986, 99.857182
1.900000, 0.065892, 0.065986, 99.857051
1.902500, 0.065892, 0.065986, 99.856869
1.905000, 0.065892, 0.065986, 99.856671
1.907500, 0.065892, 0.065986, 99.856459
1.910000, 0.065891, 0.065986, 99.856272
1.912500, 0.065891, 0.065986, 99.856172
1.915000, 0.065891, 0.065986, 99.856152
1.917500, 0.065891, 0.065986, 99.856230
1.920000, 0.065891, 0.065986, 99.856378
1.922500, 0.065892, 0.065986, 99.856604
1.925000, 0.065892, 0.065986, 99.857046
1.927500, 0.065892, 0.065986, 99.857753
1.930000, 0.065893, 0.065986, 99.858702
1.932500, 0.065894, 0.065986, 99.859898
1.935000, 0.065895, 0.065986, 99.861275
1.937500, 0.065896, 0.065986, 99.862784
1.940000, 0.065897, 0.065986, 99.864354
1.942500, 0.065898, 0.065986, 99.865946
1.945000, 0.065899, 0.065986, 99.867512
1.947500, 0.065900, 0.065986, 99.869018
1.950000, 0.065901, 0.065986, 99.870413
1.952500, 0.065902, 0.065986, 99.871670
1.955000, 0.065902, 0.065986, 99.872761
1.957500, 0.065903, 0.065986, 99.873671
1.960000, 0.065903, 0.065986, 99.874378
1.962500, 0.065904, 0.065986, 99.874882
1.965000, 0.065904, 0.065986, 99.875228
1.967500, 0.065904, 0.065986, 99.875425
1.970000, 0.065904, 0.065986, 99.875458
1.972500, 0.065904, 0.065986, 99.875304
1.975000, 0.065904, 0.065986, 99.874948
1.977500, 0.065903, 0.065986, 99.874402
1.980000, 0.065903, 0.065986, 99.873782
1.982500, 0.065903, 0.065986, 99.873137
1.985000, 0.065902, 0.065986, 99.872452
1.987500, 0.065902, 0.065986, 99.871723
1.990000, 0.065901, 0.065986, 99.870947
1.992500, 0.065901, 0.065986, 99.870214
1.995000, 0.065900, 0.065986, 99.869621
1.997500, 0.065900, 0.065986, 99.869152
2.000000, 0.065900, 0.065986, 99.868777
2.002500, 0.065899, 0.065986, 99.868454
2.005000, 0.065899, 0.065986, 99.868162
2.007500, 0.065899, 0.065986, 99.867875
2.010000, 0.065899, 0.065986, 99.867574
2.012500, 0.065899, 0.065986, 99.867245
2.015000, 0.065898, 0.065986, 99.866875
2.017500, 0.065898, 0.065986, 99.866452
2.020000, 0.065898, 0.065986, 99.865943
2.022500, 0.065897, 0.065986, 99.865330
2.025000, 0.065897, 0.065986, 99.864615
2.027500, 0.065896, 0.065986, 99.863800
2.030000, 0.065896, 0.065986, 99.862867
2.032500, 0.065895, 0.065986, 99.861828
2.035000, 0.065894, 0.065986, 99.860699
2.037500, 0.065894, 0.065986, 99.859603
2.040000, 0.065893, 0.065986, 99.858636
2.042500, 0.065892, 0.065986, 99.857801
2.045000, 0.065892, 0.065986, 99.857070
2.047500, 0.065892, 0.065986, 99.856420
2.050000, 0.065891, 0.065986, 99.855808
2.052500, 0.065891, 0.065986, 99.855297
2.055000, 0.065890, 0.065986, 99.854895
2.057500, 0.065890, 0.065986, 99.854584
2.060000, 0.065890, 0.065986, 99.854347
2.062500, 0.065890, 0.065986, 99.854148
2.065000, 0.065890, 0.065986, 99.853948
2.067500, 0.065890, 0.065986, 99.853714
2.070000, 0.065890, 0.065986, 99.853469
2.072500, 0.065889, 0.065986, 99.853224
2.075000, 0.065889, 0.065986, 99.852988
2.077500, 0.065889, 0.065986, 99.852816
2.080000, 0.065889, 0.065986, 99.852738
2.082500, 0.065889, 0.065986, 99.852756
2.085000, 0.065889, 0.065986, 99.852872
2.087500, 0.065889, 0.065986, 99.853041
2.090000, 0.065889, 0.065986, 99.853346
2.092500, 0.065890, 0.065986, 99.853931
2.095000, 0.065890, 0.065986, 99.854788
2.097500, 0.065891, 0.065986, 99.855909
2.100000, 0.065892, 0.065986, 99.857241
2.102500, 0.065893, 0.065986, 99.858738
2.105000, 0.065894, 0.065986, 99.860325
2.107500, 0.065895, 0.065986, 99.861954
2.110000, 0.065896, 0.065986, 99.863583
2.112500, 0.065897, 0.065986, 99.865175
2.115000, 0.065898, 0.065986, 99.866678
2.117500, 0.065899, 0.065986, 99.868056
2.120000, 0.065900, 0.065986, 99.869285
2.122500, 0.065901, 0.065986, 99.870343
2.125000, 0.065901, 0.065986, 99.871210
2.127500, 0.065902, 0.065986, 99.871865
2.130000, 0.065902, 0.065986, 99.872318
2.132500, 0.065902, 0.065986, 99.872612
2.135000, 0.065902, 0.065986, 99.872742
2.137500, 0.065902, 0.065986, 99.872696
2.140000, 0.065902, 0.065986, 99.872463
2.142500, 0.065902, 0.065986, 99.872029
2.145000, 0.065901, 0.065986, 99.871463
2.147500, 0.065901, 0.065986, 99.870873
2.150000, 0.065901, 0.065986, 99.870261
2.152500, 0.065900, 0.065986, 99.869610
2.155000, 0.065900, 0.065986, 99.868915
2.157500, 0.065899, 0.065986, 99.868216
2.160000, 0.065899, 0.065986, 99.867644
2.162500, 0.065899, 0.065986, 99.867211
2.165000, 0.065898, 0.065986, 99.866878
2.167500, 0.065898, 0.065986, 99.866612
2.170000, 0.065898, 0.065986, 99.866369
2.172500, 0.065898, 0.065986, 99.866139
2.175000, 0.065898, 0.065986, 99.865921
2.177500, 0.065898, 0.065986, 99.865654
2.180000, 0.065897, 0.065986, 99.865340
2.182500, 0.065897, 0.065986, 99.865013
2.185000, 0.065897, 0.065986, 99.864552
2.187500, 0.065896, 0.065986, 99.863985
2.190000, 0.065896, 0.065986, 99.863308
2.192500, 0.065896, 0.065986, 99.862537
2.195000, 0.065895, 0.065986, 99.861650
2.197500, 0.065894, 0.065986, 99.860653
2.200000, 0.065894, 0.065986, 99.859568
2.202500, 0.065893, 0.065986, 99.858442
2.205000, 0.065892, 0.065986, 99.857363
2.207500, 0.065891, 0.065986, 99.856403
2.210000, 0.065891, 0.065986, 99.855553
2.212500, 0.065890, 0.065986, 99.854796
2.215000, 0.065890, 0.065986, 99.854094
2.217500, 0.065890, 0.065986, 99.853432
2.220000, 0.065889, 0.065986, 99.852884
2.222500, 0.065889, 0.065986, 99.852447
2.225000, 0.065889, 0.065986, 99.852100
2.227500, 0.065888, 0.065986, 99.851821
2.230000, 0.065888, 0.065986, 99.851575
2.232500, 0.065888, 0.065986, 99.851309
2.235000, 0.065888, 0.065986, 99.851038
2.237500, 0.065888, 0.065986, 99.850776
2.240000, 0.065888, 0.065986, 99.850531
2.242500, 0.065887, 0.065986, 99.850304
2.245000, 0.065887, 0.065986, 99.850164
2.247500, 0.065887, 0.065986, 99.850131
2.250000, 0.065887, 0.065986, 99.850209
2.252500, 0.065887, 0.065986, 99.850321
2.255000, 0.065888, 0.065986, 99.850546
2.257500, 0.065888, 0.065986, 99.850978
2.260000, 0.065888, 0.065986, 99.851701
2.262500, 0.065889, 0.065986, 99.852699
2.265000, 0.065890, 0.065986, 99.853957
2.267500, 0.065891, 0.065986, 99.855375
2.270000, 0.065892, 0.065986, 99.856930
2.272500, 0.065893, 0.065986, 99.858562
2.275000, 0.065894, 0.065986, 99.860371
2.277500, 0.065895, 0.065986, 99.862012
2.280000, 0.065896, 0.065986, 99.863573
2.282500, 0.065897, 0.065986, 99.865039
2.285000, 0.065898, 0.065986, 99.866383
2.287500, 0.065899, 0.065986, 99.867580
2.290000, 0.065900, 0.065986, 99.868599
2.292500, 0.065900, 0.065986, 99.869410
2.295000, 0.065900, 0.065986, 99.869996
2.297500, 0.065901, 0.065986, 99.870398
2.300000, 0.065901, 0.065986, 99.870647
2.302500, 0.065901, 0.065986, 99.870728
2.305000, 0.065901, 0.065986, 99.870628
2.307500, 0.065901, 0.065986, 99.870334
2.310000, 0.065900, 0.065986, 99.869851
2.312500, 0.065900, 0.065986, 99.869293
2.315000, 0.065900, 0.065986, 99.868728
2.317500, 0.065899, 0.065986, 99.868134
2.320000, 0.065899, 0.065986, 99.867513
2.322500, 0.065898, 0.065986, 99.866886
2.325000, 0.065898, 0.065986, 99.866285
2.327500, 0.065898, 0.065986, 99.865824
2.330000, 0.065897, 0.065986, 99.865494
2.332500, 0.065897, 0.065986, 99.865239
2.335000, 0.065897, 0.065986, 99.865030
2.337500, 0.065897, 0.065986, 99.864840
2.340000, 0.065897, 0.065986, 99.864651
2.342500, 0.065897, 0.065986, 99.864442
2.345000, 0.065897, 0.065986, 99.864194
2.347500, 0.065896, 0.065986, 99.863890
2.350000, 0.065896, 0.065986, 99.863512
2.352500, 0.065896, 0.065986, 99.863033
2.355000, 0.065895, 0.065986, 99.862447
2.357500, 0.065895, 0.065986, 99.861744
2.360000, 0.065894, 0.065986, 99.860924
2.362500, 0.065894, 0.065986, 99.859994
2.365000, 0.065893, 0.065986, 99.858948
2.367500, 0.065892, 0.065986, 99.857794
2.370000, 0.065892, 0.065986, 99.856615
2.372500, 0.065891, 0.065986, 99.855484
2.375000, 0.065890, 0.065986, 99.854486
2.377500, 0.065890, 0.065986, 99.853614
2.380000, 0.065889, 0.065986, 99.852838
2.382500, 0.065889, 0.065986, 99.852098
2.385000, 0.065888, 0.065986, 99.851407
2.387500, 0.065888, 0.065986, 99.850843
2.390000, 0.065888, 0.065986, 99.850397
2.392500, 0.065887, 0.065986, 99.850041
2.395000, 0.065887, 0.065986, 99.849751
2.397500, 0.065887, 0.065986, 99.849482
2.400000, 0.065887, 0.065986, 99.849198
2.402500, 0.065887, 0.065986, 99.848924
2.405000, 0.065886, 0.065986, 99.848668
2.407500, 0.065886, 0.065986, 99.848427
2.410000, 0.065886, 0.065986, 99.848210
2.412500, 0.065886, 0.065986, 99.848082
2.415000, 0.065886, 0.065986, 99.848070
2.417500, 0.065886, 0.065986, 99.848174
2.420000, 0.065886, 0.065986, 99.848356
2.422500, 0.065886, 0.065986, 99.848616
2.425000, 0.065887, 0.065986, 99.849151
2.427500, 0.065887, 0.065986, 99.849988
2.430000, 0.065888, 0.065986, 99.851062
2.432500, 0.065889, 0.065986, 99.852367
2.435000, 0.065890, 0.065986, 99.853858
2.437500, 0.065891, 0.065986, 99.855467
2.440000, 0.065892, 0.065986, 99.857138
2.442500, 0.065893, 0.065986, 99.858829
2.445000, 0.065894, 0.065986, 99.860498
2.447500, 0.065895, 0.065986, 99.862108
2.450000, 0.065896, 0.065986, 99.863615
2.452500, 0.065897, 0.065986, 99.864989
2.455000, 0.065898, 0.065986, 99.866198
2.457500, 0.065899, 0.065986, 99.867210
2.460000, 0.065899, 0.065986, 99.868005
2.462500, 0.065900, 0.065986, 99.868576
2.465000, 0.065900, 0.065986, 99.868967
2.467500, 0.065900, 0.065986, 99.869204
2.470000, 0.065900, 0.065986, 99.869270
2.472500, 0.065900, 0.065986, 99.869155
2.475000, 0.065900, 0.065986, 99.868845
2.477500, 0.065899, 0.065986, 99.868356
2.480000, 0.065899, 0.065986, 99.867823
2.482500, 0.065899, 0.065986, 99.867285
2.485000, 0.065898, 0.065986, 99.866722
2.487500, 0.065898, 0.065986, 99.866144
2.490000, 0.065898, 0.065986, 99.865552
2.492500, 0.065897, 0.065986, 99.865001
2.495000, 0.065897, 0.065986, 99.864589
2.497500, 0.065897, 0.065986, 99.864294
2.500000, 0.065897, 0.065986, 99.864074
2.502500, 0.065896, 0.065986, 99.863894
2.505000, 0.065896, 0.065986, 99.863730
2.507500, 0.065896, 0.065986, 99.863562
2.510000, 0.065896, 0.065986, 99.863367
2.512500, 0.065896, 0.065986, 99.863125
2.515000, 0.065896, 0.065986, 99.862824
2.517500, 0.065895, 0.065986, 99.862444
2.520000, 0.065895, 0.065986, 99.861965
2.522500, 0.065895, 0.065986, 99.861373
2.525000, 0.065894, 0.065986, 99.860651
2.527500, 0.065894, 0.065986, 99.859802
2.530000, 0.065893, 0.065986, 99.858838
2.532500, 0.065892, 0.065986, 99.857757
2.535000, 0.065892, 0.065986, 99.856569
2.537500, 0.065891, 0.065986, 99.855357
2.540000, 0.065890, 0.065986, 99.854216
2.542500, 0.065889, 0.065986, 99.853209
2.545000, 0.065889, 0.065986, 99.852320
2.547500, 0.065888, 0.065986, 99.851520
2.550000, 0.065888, 0.065986, 99.850743
2.552500, 0.065887, 0.065986, 99.850025
2.555000, 0.065887, 0.065986, 99.849441
2.557500, 0.065887, 0.065986, 99.848980
2.560000, 0.065886, 0.065986, 99.848613
2.562500, 0.065886, 0.065986, 99.848315
2.565000, 0.065886, 0.065986, 99.848026
2.567500, 0.065886, 0.065986, 99.847731
2.570000, 0.065886, 0.065986, 99.847455
2.572500, 0.065885, 0.065986, 99.847205
2.575000, 0.065885, 0.065986, 99.846970
2.577500, 0.065885, 0.065986, 99.846763
2.580000, 0.065885, 0.065986, 99.846652
2.582500, 0.065885, 0.065986, 99.846658
2.585000, 0.065885, 0.065986, 99.846783
2.587500, 0.065885, 0.065986, 99.846988
2.590000, 0.065885, 0.065986, 99.847281
2.592500, 0.065886, 0.065986, 99.847846
2.595000, 0.065886, 0.065986, 99.848710
2.597500, 0.065887, 0.065986, 99.849928
2.600000, 0.065888, 0.065986, 99.851449
2.602500, 0.065889, 0.065986, 99.852896
2.605000, 0.065890, 0.065986, 99.854469
2.607500, 0.065891, 0.065986, 99.856116
2.610000, 0.065892, 0.065986, 99.857792
2.612500, 0.065894, 0.065986, 99.859450
2.615000, 0.065895, 0.065986, 99.861047
2.617500, 0.065896, 0.065986, 99.862543
2.620000, 0.065896, 0.065986, 99.863901
2.622500, 0.065897, 0.065986, 99.865090
2.625000, 0.065898, 0.065986, 99.866082
2.627500, 0.065898, 0.065986, 99.866861
2.630000, 0.065899, 0.065986, 99.867416
2.632500, 0.065899, 0.065986, 99.867795
2.635000, 0.065899, 0.065986, 99.868023
2.637500, 0.065899, 0.065986, 99.868083
2.640000, 0.065899, 0.065986, 99.867963
2.642500, 0.065899, 0.065986, 99.867651
2.645000, 0.065899, 0.065986, 99.867167
2.647500, 0.065898, 0.065986, 99.866651
2.650000, 0.065898, 0.065986, 99.866133
2.652500, 0.065898, 0.065986, 99.865594
2.655000, 0.065897, 0.065986, 99.865045
2.657500, 0.065897, 0.065986, 99.864486
2.660000, 0.065896, 0.065986, 99.863966
2.662500, 0.065896, 0.065986, 99.863588
2.665000, 0.065896, 0.065986, 99.863326
2.667500, 0.065896, 0.065986, 99.863134
2.670000, 0.065896, 0.065986, 99.862980
2.672500, 0.065896, 0.065986, 99.862842
2.675000, 0.065896, 0.065986, 99.862698
2.677500, 0.065896, 0.065986, 99.862525
2.680000, 0.065895, 0.065986, 99.862304
2.682500, 0.065895, 0.065986, 99.862026
2.685000, 0.065895, 0.065986, 99.861667
2.687500, 0.065895, 0.065986, 99.861209
2.690000, 0.065894, 0.065986, 99.860635
2.692500, 0.065894, 0.065986, 99.859915
2.695000, 0.065893, 0.065986, 99.859055
2.697500, 0.065893, 0.065986, 99.858080
2.700000, 0.065892, 0.065986, 99.856990
2.702500, 0.065891, 0.065986, 99.855791
2.705000, 0.065890, 0.065986, 99.854558
2.707500, 0.065889, 0.065986, 99.853375
2.710000, 0.065889, 0.065986, 99.852326
2.712500, 0.065888, 0.065986, 99.851403
2.715000, 0.065888, 0.065986, 99.850563
2.717500, 0.065887, 0.065986, 99.849746
2.720000, 0.065887, 0.065986, 99.848975
2.722500, 0.065886, 0.065986, 99.848343
2.725000, 0.065886, 0.065986, 99.847839
2.727500, 0.065886, 0.065986, 99.847436
2.730000, 0.065885, 0.065986, 99.847102
2.732500, 0.065885, 0.065986, 99.846781
2.735000, 0.065885, 0.065986, 99.846459
2.737500, 0.065885, 0.065986, 99.846165
2.740000, 0.065885, 0.065986, 99.845904
2.742500, 0.065884, 0.065986, 99.845666
2.745000, 0.065884, 0.065986, 99.845448
2.747500, 0.065884, 0.065986, 99.845321
2.750000, 0.065884, 0.065986, 99.845317
2.752500, 0.065884, 0.065986, 99.845439
2.755000, 0.065884, 0.065986, 99.845653
2.757500, 0.065885, 0.065986, 99.845946
2.760000, 0.065885, 0.065986, 99.846489
2.762500, 0.065886, 0.065986, 99.847338
2.765000, 0.065886, 0.065986, 99.848430
2.767500, 0.065887, 0.065986, 99.849767
2.770000, 0.065888, 0.065986, 99.851286
2.772500, 0.065889, 0.065986, 99.852927
2.775000, 0.065890, 0.065986, 99.854640
2.777500, 0.065891, 0.065986, 99.856382
2.780000, 0.065893, 0.065986, 99.858101
2.782500, 0.065894, 0.065986, 99.859753
2.785000, 0.065895, 0.065986, 99.861302
2.787500, 0.065896, 0.065986, 99.862710
2.790000, 0.065896, 0.065986, 99.863945
2.792500, 0.065897, 0.065986, 99.864983
2.795000, 0.065898, 0.065986, 99.865809
2.797500, 0.065898, 0.065986, 99.866408
2.800000, 0.065898, 0.065986, 99.866816
2.802500, 0.065899, 0.065986, 99.867074
2.805000, 0.065899, 0.065986, 99.867167
2.807500, 0.065899, 0.065986, 99.867085
2.810000, 0.065898, 0.065986, 99.866812
2.812500, 0.065898, 0.065986, 99.866360
2.815000, 0.065898, 0.065986, 99.865863
2.817500, 0.065897, 0.065986, 99.865369
2.820000, 0.065897, 0.065986, 99.864858
2.822500, 0.065897, 0.065986, 99.864339
2.825000, 0.065896, 0.065986, 99.863812
2.827500, 0.065896, 0.065986, 99.863301
2.830000, 0.065896, 0.065986, 99.862922
2.832500, 0.065896, 0.065986, 99.862665
2.835000, 0.065895, 0.065986, 99.862479
2.837500, 0.065895, 0.065986, 99.862336
2.840000, 0.065895, 0.065986, 99.862213
2.842500, 0.065895, 0.065986, 99.862086
2.845000, 0.065895, 0.065986, 99.861932
2.847500, 0.065895, 0.065986, 99.861734
2.850000, 0.065895, 0.065986, 99.861482
2.852500, 0.065895, 0.065986, 99.861149
2.855000, 0.065894, 0.065986, 99.860719
2.857500, 0.065894, 0.065986, 99.860169
2.860000, 0.065894, 0.065986, 99.859467
2.862500, 0.065893, 0.065986, 99.858618
2.865000, 0.065892, 0.065986, 99.857653
2.867500, 0.065892, 0.065986, 99.856574
2.870000, 0.065891, 0.065986, 99.855373
2.872500, 0.065890, 0.065986, 99.854110
2.875000, 0.065889, 0.065986, 99.852877
2.877500, 0.065888, 0.065986, 99.851775
2.880000, 0.065888, 0.065986, 99.850806
2.882500, 0.065887, 0.065986, 99.849927
2.885000, 0.065887, 0.065986, 99.849080
2.887500, 0.065886, 0.065986, 99.848264
2.890000, 0.065886, 0.065986, 99.847579
2.892500, 0.065885, 0.065986, 99.847034
2.895000, 0.065885, 0.065986, 99.846598
2.897500, 0.065885, 0.065986, 99.846242
2.900000, 0.065885, 0.065986, 99.845909
2.902500, 0.065884, 0.065986, 99.845575
2.905000, 0.065884, 0.065986, 99.845274
2.907500, 0.065884, 0.065986, 99.845013
2.910000, 0.065884, 0.065986, 99.844784
2.912500, 0.065884, 0.065986, 99.844570
2.915000, 0.065884, 0.065986, 99.844434
2.917500, 0.065884, 0.065986, 99.844419
2.920000, 0.065884, 0.065986, 99.844536
2.922500, 0.065884, 0.065986, 99.844756
2.925000, 0.065884, 0.065986, 99.845027
2.927500, 0.065884, 0.065986, 99.845472
2.930000, 0.065885, 0.065986, 99.846311
2.932500, 0.065886, 0.065986, 99.847410
2.935000, 0.065886, 0.065986, 99.848732
2.937500, 0.065887, 0.065986, 99.850257
2.940000, 0.065889, 0.065986, 99.851897
2.942500, 0.065890, 0.065986, 99.853611
2.945000, 0.065891, 0.065986, 99.855367
2.947500, 0.065892, 0.065986, 99.857109
2.950000, 0.065893, 0.065986, 99.858788
2.952500, 0.065894, 0.065986, 99.860374
2.955000, 0.065895, 0.065986, 99.861822
2.957500, 0.065896, 0.065986, 99.863099
2.960000, 0.065897, 0.065986, 99.864183
2.962500, 0.065897, 0.065986, 99.865059
2.965000, 0.065898, 0.065986, 99.865696
2.967500, 0.065898, 0.065986, 99.866128
2.970000, 0.065898, 0.065986, 99.866411
2.972500, 0.065898, 0.065986, 99.866529
2.975000, 0.065898, 0.065986, 99.866499
2.977500, 0.065898, 0.065986, 99.866270
2.980000, 0.065898, 0.065986, 99.865863
2.982500, 0.065897, 0.065986, 99.865370
2.985000, 0.065897, 0.065986, 99.864880
2.987500, 0.065897, 0.065986, 99.864379
2.990000, 0.065896, 0.065986, 99.863869
2.992500, 0.065896, 0.065986, 99.863354
2.995000, 0.065896, 0.065986, 99.862832
2.997500, 0.065895, 0.065986, 99.862417
3.000000, 0.065895, 0.065986, 99.862126
3.002500, 0.065895, 0.065986, 99.861912
3.005000, 0.065895, 0.065986, 99.861757
3.007500, 0.065895, 0.065986, 99.861669
3.010000, 0.065895, 0.065986, 99.861599
3.012500, 0.065895, 0.065986, 99.861437
3.015000, 0.065895, 0.065986, 99.861277
3.017500, 0.065895, 0.065986, 99.861063
3.020000, 0.065894, 0.065986, 99.860762
3.022500, 0.065894, 0.065986, 99.860351
3.025000, 0.065894, 0.065986, 99.859845
3.027500, 0.065893, 0.065986, 99.859196
3.030000, 0.065893, 0.065986, 99.858363
3.032500, 0.065892, 0.065986, 99.857426
3.035000, 0.065891, 0.065986, 99.856359
3.037500, 0.065891, 0.065986, 99.855203
3.040000, 0.065890, 0.065986, 99.853898
3.042500, 0.065889, 0.065986, 99.852621
3.045000, 0.065888, 0.065986, 99.851394
3.047500, 0.065887, 0.065986, 99.850299
3.050000, 0.065887, 0.065986, 99.849340
3.052500, 0.065886, 0.065986, 99.848422
3.055000, 0.065886, 0.065986, 99.847526
3.057500, 0.065885, 0.065986, 99.846708
3.060000, 0.065885, 0.065986, 99.846043
3.062500, 0.065884, 0.065986, 99.845507
3.065000, 0.065884, 0.065986, 99.845253
3.067500, 0.065884, 0.065986, 99.844903
3.070000, 0.065884, 0.065986, 99.844550
3.072500, 0.065883, 0.065986, 99.844189
3.075000, 0.065883, 0.065986, 99.843713
3.077500, 0.065883, 0.065986, 99.843470
3.080000, 0.065883, 0.065986, 99.843287
3.082500, 0.065883, 0.065986, 99.843130
3.085000, 0.065883, 0.065986, 99.843078
3.087500, 0.065883, 0.065986, 99.843171
3.090000, 0.065883, 0.065986, 99.843537
3.092500, 0.065883, 0.065986, 99.843843
3.095000, 0.065883, 0.065986, 99.844229
3.097500, 0.065884, 0.065986, 99.844886
3.100000, 0.065884, 0.065986, 99.845806
3.102500, 0.065885, 0.065986, 99.846978
3.105000, 0.065886, 0.065986, 99.848381
3.107500, 0.065887, 0.065986, 99.849955
3.110000, 0.065888, 0.065986, 99.851645
3.112500, 0.065890, 0.065986, 99.853409
3.115000, 0.065891, 0.065986, 99.855192
3.117500, 0.065892, 0.065986, 99.856928
3.120000, 0.065893, 0.065986, 99.858590
3.122500, 0.065894, 0.065986, 99.860134
3.125000, 0.065895, 0.065986, 99.861526
3.127500, 0.065896, 0.065986, 99.862741
3.130000, 0.065896, 0.065986, 99.863757
3.132500, 0.065897, 0.065986, 99.864560
3.135000, 0.065897, 0.065986, 99.865134
3.137500, 0.065898, 0.065986, 99.865519
3.140000, 0.065898, 0.065986, 99.865759
3.142500, 0.065898, 0.065986, 99.865837
3.145000, 0.065898, 0.065986, 99.865742
3.147500, 0.065897, 0.065986, 99.865457
3.150000, 0.065897, 0.065986, 99.865017
3.152500, 0.065897, 0.065986, 99.864556
3.155000, 0.065897, 0.065986, 99.864096
3.157500, 0.065896, 0.065986, 99.863647
3.160000, 0.065896, 0.065986, 99.863187
3.162500, 0.065896, 0.065986, 99.862720
3.165000, 0.065895, 0.065986, 99.862267
3.167500, 0.065895, 0.065986, 99.861942
3.170000, 0.065895, 0.065986, 99.861718
3.172500, 0.065895, 0.065986, 99.861559
3.175000, 0.065895, 0.065986, 99.861436
3.177500, 0.065895, 0.065986, 99.861331
3.180000, 0.065895, 0.065986, 99.861222
3.182500, 0.065895, 0.065986, 99.861085
3.185000, 0.065894, 0.065986, 99.860909
3.187500, 0.065894, 0.065986, 99.860670
3.190000, 0.065894, 0.065986, 99.860346
3.192500, 0.065894, 0.065986, 99.859915
3.195000, 0.065893, 0.065986, 99.859353
3.197500, 0.065893, 0.065986, 99.858630
3.200000, 0.065892, 0.065986, 99.857751
3.202500, 0.065892, 0.065986, 99.856756
3.205000, 0.065891, 0.065986, 99.855645
3.207500, 0.065890, 0.065986, 99.854392
3.210000, 0.065889, 0.065986, 99.853067
3.212500, 0.065888, 0.065986, 99.851749
3.215000, 0.065888, 0.065986, 99.850533
3.217500, 0.065887, 0.065986, 99.849453
3.220000, 0.065886, 0.065986, 99.848462
3.222500, 0.065886, 0.065986, 99.847515
3.225000, 0.065885, 0.065986, 99.846598
3.227500, 0.065884, 0.065986, 99.845784
3.230000, 0.065884, 0.065986, 99.845126
3.232500, 0.065884, 0.065986, 99.844596
3.235000, 0.065883, 0.065986, 99.844162
3.237500, 0.065883, 0.065986, 99.843764
3.240000, 0.065883, 0.065986, 99.843405
3.242500, 0.065883, 0.065986, 99.843107
3.245000, 0.065883, 0.065986, 99.842872
3.247500, 0.065882, 0.065986, 99.842684
3.250000, 0.065882, 0.065986, 99.842516
3.252500, 0.065882, 0.065986, 99.842387
3.255000, 0.065882, 0.065986, 99.842379
3.257500, 0.065882, 0.065986, 99.842520
3.260000, 0.065882, 0.065986, 99.842779
3.262500, 0.065883, 0.065986, 99.843136
3.265000, 0.065883, 0.065986, 99.843633
3.267500, 0.065884, 0.065986, 99.844393
3.270000, 0.065884, 0.065986, 99.845391
3.272500, 0.065885, 0.065986, 99.846631
3.275000, 0.065886, 0.065986, 99.848084
3.277500, 0.065887, 0.065986, 99.849698
3.280000, 0.065888, 0.065986, 99.851418
3.282500, 0.065889, 0.065986, 99.853207
3.285000, 0.065891, 0.065986, 99.855002
3.287500, 0.065892, 0.065986, 99.856738
3.290000, 0.065893, 0.065986, 99.858385
3.292500, 0.065894, 0.065986, 99.859905
3.295000, 0.065895, 0.065986, 99.861268
3.297500, 0.065895, 0.065986, 99.862454
3.300000, 0.065896, 0.065986, 99.863442
3.302500, 0.065897, 0.065986, 99.864215
3.305000, 0.065897, 0.065986, 99.864760
3.307500, 0.065897, 0.065986, 99.865127
3.310000, 0.065897, 0.065986, 99.865347
3.312500, 0.065897, 0.065986, 99.865405
3.315000, 0.065897, 0.065986, 99.865288
3.317500, 0.065897, 0.065986, 99.864987
3.320000, 0.065897, 0.065986, 99.864556
3.322500, 0.065897, 0.065986, 99.864117
3.325000, 0.065896, 0.065986, 99.863683
3.327500, 0.065896, 0.065986, 99.863261
3.330000, 0.065896, 0.065986, 99.862846
3.332500, 0.065895, 0.065986, 99.862422
3.335000, 0.065895, 0.065986, 99.862022
3.337500, 0.065895, 0.065986, 99.861745
3.340000, 0.065895, 0.065986, 99.861559
3.342500, 0.065895, 0.065986, 99.861433
3.345000, 0.065895, 0.065986, 99.861342
3.347500, 0.065895, 0.065986, 99.861265
3.350000, 0.065895, 0.065986, 99.861178
3.352500, 0.065895, 0.065986, 99.861063
3.355000, 0.065894, 0.065986, 99.860910
3.357500, 0.065894, 0.065986, 99.860691
3.360000, 0.065894, 0.065986, 99.860381
3.362500, 0.065894, 0.065986, 99.859948
3.365000, 0.065893, 0.065986, 99.859371
3.367500, 0.065893, 0.065986, 99.858641
3.370000, 0.065892, 0.065986, 99.857759
3.372500, 0.065892, 0.065986, 99.856734
3.375000, 0.065891, 0.065986, 99.855584
3.377500, 0.065890, 0.065986, 99.854287
3.380000, 0.065889, 0.065986, 99.852918
3.382500, 0.065888, 0.065986, 99.851550
3.385000, 0.065887, 0.065986, 99.850178
3.387500, 0.065887, 0.065986, 99.848889
3.390000, 0.065886, 0.065986, 99.847706
3.392500, 0.065885, 0.065986, 99.846582
3.395000, 0.065884, 0.065986, 99.845504
3.397500, 0.065884, 0.065986, 99.844461
3.400000, 0.065883, 0.065986, 99.843516
3.402500, 0.065882, 0.065986, 99.842720
3.405000, 0.065882, 0.065986, 99.842044
3.407500, 0.065882, 0.065986, 99.841444
3.410000, 0.065881, 0.065986, 99.840931
3.412500, 0.065881, 0.065986, 99.840515
3.415000, 0.065881, 0.065986, 99.840199
3.417500, 0.065881, 0.065986, 99.839964
3.420000, 0.065881, 0.065986, 99.839783
3.422500, 0.065880, 0.065986, 99.839635
3.425000, 0.065880, 0.065986, 99.839544
3.427500, 0.065880, 0.065986, 99.839622
3.430000, 0.065881, 0.065986, 99.839861
3.432500, 0.065881, 0.065986, 99.840403
3.435000, 0.065881, 0.065986, 99.840918
3.437500, 0.065882, 0.065986, 99.841537
3.440000, 0.065882, 0.065986, 99.842354
3.442500, 0.065883, 0.065986, 99.843444
3.445000, 0.065884, 0.065986, 99.844789
3.447500, 0.065885, 0.065986, 99.846334
3.450000, 0.065886, 0.065986, 99.848032
3.452500, 0.065887, 0.065986, 99.849851
3.455000, 0.065888, 0.065986, 99.851725
3.457500, 0.065890, 0.065986, 99.853570
3.460000, 0.065891, 0.065986, 99.855357
3.462500, 0.065892, 0.065986, 99.857044
3.465000, 0.065893, 0.065986, 99.858600
3.467500, 0.065894, 0.065986, 99.860002
3.470000, 0.065895, 0.065986, 99.861228
3.472500, 0.065895, 0.065986, 99.862260
3.475000, 0.065896, 0.065986, 99.863077
3.477500, 0.065896, 0.065986, 99.863669
3.480000, 0.065897, 0.065986, 99.864068
3.482500, 0.065897, 0.065986, 99.864317
3.485000, 0.065897, 0.065986, 99.864408
3.487500, 0.065897, 0.065986, 99.864329
3.490000, 0.065897, 0.065986, 99.864110
3.492500, 0.065896, 0.065986, 99.863814
3.495000, 0.065896, 0.065986, 99.863506
3.497500, 0.065896, 0.065986, 99.863238
3.500000, 0.065896, 0.065986, 99.862989
3.502500, 0.065896, 0.065986, 99.862744
3.505000, 0.065896, 0.065986, 99.862484
3.507500, 0.065895, 0.065986, 99.862210
3.510000, 0.065895, 0.065986, 99.862003
3.512500, 0.065895, 0.065986, 99.861874
3.515000, 0.065895, 0.065986, 99.861796
3.517500, 0.065895, 0.065986, 99.861746
3.520000, 0.065895, 0.065986, 99.861702
3.522500, 0.065895, 0.065986, 99.861654
3.525000, 0.065895, 0.065986, 99.861606
3.527500, 0.065895, 0.065986, 99.861490
3.530000, 0.065895, 0.065986, 99.861289
3.532500, 0.065895, 0.065986, 99.860968
3.535000, 0.065894, 0.065986, 99.860509
3.537500, 0.065894, 0.065986, 99.859912
3.540000, 0.065893, 0.065986, 99.859170
3.542500, 0.065893, 0.065986, 99.858284
3.545000, 0.065892, 0.065986, 99.857253
3.547500, 0.065891, 0.065986, 99.856033
3.550000, 0.065890, 0.065986, 99.854637
3.552500, 0.065889, 0.065986, 99.853171
3.555000, 0.065888, 0.065986, 99.851707
3.557500, 0.065887, 0.065986, 99.850223
3.560000, 0.065886, 0.065986, 99.848744
3.562500, 0.065886, 0.065986, 99.847378
3.565000, 0.065885, 0.065986, 99.846115
3.567500, 0.065884, 0.065986, 99.844909
3.570000, 0.065883, 0.065986, 99.843742
3.572500, 0.065882, 0.065986, 99.842613
3.575000, 0.065882, 0.065986, 99.841610
3.577500, 0.065881, 0.065986, 99.840753
3.580000, 0.065881, 0.065986, 99.840061
3.582500, 0.065880, 0.065986, 99.839527
3.585000, 0.065880, 0.065986, 99.839138
3.587500, 0.065880, 0.065986, 99.838877
3.590000, 0.065880, 0.065986, 99.838713
3.592500, 0.065880, 0.065986, 99.838635
3.595000, 0.065880, 0.065986, 99.838643
3.597500, 0.065880, 0.065986, 99.838605
3.600000, 0.065880, 0.065986, 99.838648
3.602500, 0.065880, 0.065986, 99.838880
3.605000, 0.065880, 0.065986, 99.839313
3.607500, 0.065881, 0.065986, 99.839895
3.610000, 0.065881, 0.065986, 99.840546
3.612500, 0.065881, 0.065986, 99.841240
3.615000, 0.065882, 0.065986, 99.842139
3.617500, 0.065883, 0.065986, 99.843313
3.620000, 0.065884, 0.065986, 99.844731
3.622500, 0.065885, 0.065986, 99.846344
3.625000, 0.065886, 0.065986, 99.848096
3.627500, 0.065887, 0.065986, 99.849926
3.630000, 0.065888, 0.065986, 99.851791
3.632500, 0.065890, 0.065986, 99.853639
3.635000, 0.065891, 0.065986, 99.855414
3.637500, 0.065892, 0.065986, 99.857084
3.640000, 0.065893, 0.065986, 99.858626
3.642500, 0.065894, 0.065986, 99.860017
3.645000, 0.065895, 0.065986, 99.861230
3.647500, 0.065895, 0.065986, 99.862248
3.650000, 0.065896, 0.065986, 99.863056
3.652500, 0.065896, 0.065986, 99.863640
3.655000, 0.065897, 0.065986, 99.864012
3.657500, 0.065897, 0.065986, 99.864229
3.660000, 0.065897, 0.065986, 99.864288
3.662500, 0.065897, 0.065986, 99.864196
3.665000, 0.065897, 0.065986, 99.864051
3.667500, 0.065896, 0.065986, 99.863899
3.670000, 0.065896, 0.065986, 99.863705
3.672500, 0.065896, 0.065986, 99.863546
3.675000, 0.065896, 0.065986, 99.863404
3.677500, 0.065896, 0.065986, 99.863268
3.680000, 0.065896, 0.065986, 99.863108
3.682500, 0.065896, 0.065986, 99.862903
3.685000, 0.065896, 0.065986, 99.862702
3.687500, 0.065896, 0.065986, 99.862573
3.690000, 0.065896, 0.065986, 99.862493
3.692500, 0.065895, 0.065986, 99.862439
3.695000, 0.065895, 0.065986, 99.862400
3.697500, 0.065895, 0.065986, 99.862360
3.700000, 0.065895, 0.065986, 99.862304
3.702500, 0.065895, 0.065986, 99.862210
3.705000, 0.065895, 0.065986, 99.862025
3.707500, 0.065895, 0.065986, 99.861753
3.710000, 0.065895, 0.065986, 99.861334
3.712500, 0.065894, 0.065986, 99.860787
3.715000, 0.065894, 0.065986, 99.860114
3.717500, 0.065893, 0.065986, 99.859307
3.720000, 0.065893, 0.065986, 99.858365
3.722500, 0.065892, 0.065986, 99.857282
3.725000, 0.065891, 0.065986, 99.856028
3.727500, 0.065890, 0.065986, 99.854575
3.730000, 0.065889, 0.065986, 99.852995
3.732500, 0.065888, 0.065986, 99.851372
3.735000, 0.065887, 0.065986, 99.849707
3.737500, 0.065886, 0.065986, 99.848002
3.740000, 0.065885, 0.065986, 99.846264
3.742500, 0.065884, 0.065986, 99.844506
3.745000, 0.065882, 0.065986, 99.842703
3.747500, 0.065881, 0.065986, 99.840836
3.750000, 0.065880, 0.065986, 99.838906
3.752500, 0.065879, 0.065986, 99.836990
3.755000, 0.065878, 0.065986, 99.835212
3.757500, 0.065876, 0.065986, 99.833594
3.760000, 0.065875, 0.065986, 99.832133
3.762500, 0.065875, 0.065986, 99.830793
3.765000, 0.065874, 0.065986, 99.829588
3.767500, 0.065873, 0.065986, 99.828575
3.770000, 0.065873, 0.065986, 99.827748
3.772500, 0.065872, 0.065986, 99.827087
3.775000, 0.065872, 0.065986, 99.826588
3.777500, 0.065872, 0.065986, 99.826308
3.780000, 0.065872, 0.065986, 99.826250
3.782500, 0.065872, 0.065986, 99.826368
3.785000, 0.065872, 0.065986, 99.826616
3.787500, 0.065872, 0.065986, 99.826951
3.790000, 0.065872, 0.065986, 99.827362
3.792500, 0.065873, 0.065986, 99.827934
3.795000, 0.065873, 0.065986, 99.828727
3.797500, 0.065874, 0.065986, 99.829675
3.800000, 0.065875, 0.065986, 99.830724
3.802500, 0.065875, 0.065986, 99.831845
3.805000, 0.065876, 0.065986, 99.833107
3.807500, 0.065877, 0.065986, 99.834567
3.810000, 0.065878, 0.065986, 99.836230
3.812500, 0.065879, 0.065986, 99.838049
3.815000, 0.065881, 0.065986, 99.839938
3.817500, 0.065882, 0.065986, 99.841846
3.820000, 0.065883, 0.065986, 99.843736
3.822500, 0.065884, 0.065986, 99.845577
3.825000, 0.065886, 0.065986, 99.847337
3.827500, 0.065887, 0.065986, 99.848994
3.830000, 0.065888, 0.065986, 99.850526
3.832500, 0.065889, 0.065986, 99.851914
3.835000, 0.065889, 0.065986, 99.853162
3.837500, 0.065890, 0.065986, 99.854284
3.840000, 0.065891, 0.065986, 99.855278
3.842500, 0.065891, 0.065986, 99.856200
3.845000, 0.065892, 0.065986, 99.857074
3.847500, 0.065893, 0.065986, 99.857942
3.850000, 0.065893, 0.065986, 99.858812
3.852500, 0.065894, 0.065986, 99.859665
3.855000, 0.065894, 0.065986, 99.860482
3.857500, 0.065895, 0.065986, 99.861234
3.860000, 0.065895, 0.065986, 99.861919
3.862500, 0.065896, 0.065986, 99.862574
3.865000, 0.065896, 0.065986, 99.863202
3.867500, 0.065896, 0.065986, 99.863783
3.870000, 0.065897, 0.065986, 99.864290
3.872500, 0.065897, 0.065986, 99.864709
3.875000, 0.065897, 0.065986, 99.865050
3.877500, 0.065897, 0.065986, 99.865398
3.880000, 0.065898, 0.065986, 99.865743
3.882500, 0.065898, 0.065986, 99.866051
3.885000, 0.065898, 0.065986, 99.866306
3.887500, 0.065898, 0.065986, 99.866486
3.890000, 0.065898, 0.065986, 99.866563
3.892500, 0.065898, 0.065986, 99.866529
3.895000, 0.065898, 0.065986, 99.866383
3.897500, 0.065898, 0.065986, 99.866130
3.900000, 0.065898, 0.065986, 99.865770
3.902500, 0.065897, 0.065986, 99.865285
3.905000, 0.065897, 0.065986, 99.864661
3.907500, 0.065896, 0.065986, 99.863878
3.910000, 0.065896, 0.065986, 99.862913
3.912500, 0.065895, 0.065986, 99.861768
3.915000, 0.065894, 0.065986, 99.860442
3.917500, 0.065893, 0.065986, 99.858943
3.920000, 0.065892, 0.065986, 99.857291
3.922500, 0.065891, 0.065986, 99.855567
3.925000, 0.065890, 0.065986, 99.853824
3.927500, 0.065889, 0.065986, 99.852064
3.930000, 0.065887, 0.065986, 99.850321
3.932500, 0.065886, 0.065986, 99.848645
3.935000, 0.065885, 0.065986, 99.847105
3.937500, 0.065884, 0.065986, 99.845716
3.940000, 0.065884, 0.065986, 99.844465
3.942500, 0.065883, 0.065986, 99.843335
3.945000, 0.065882, 0.065986, 99.842319
3.947500, 0.065882, 0.065986, 99.841399
3.950000, 0.065881, 0.065986, 99.840596
3.952500, 0.065881, 0.065986, 99.839953
3.955000, 0.065880, 0.065986, 99.839478
3.957500, 0.065880, 0.065986, 99.839139
3.960000, 0.065880, 0.065986, 99.838919
3.962500, 0.065880, 0.065986, 99.838803
3.965000, 0.065880, 0.065986, 99.838778
3.967500, 0.065880, 0.065986, 99.838813
3.970000, 0.065880, 0.065986, 99.838872
3.972500, 0.065880, 0.065986, 99.838935
3.975000, 0.065880, 0.065986, 99.838988
3.977500, 0.065880, 0.065986, 99.839033
3.980000, 0.065880, 0.065986, 99.839032
3.982500, 0.065880, 0.065986, 99.838980
3.985000, 0.065880, 0.065986, 99.838922
3.987500, 0.065880, 0.065986, 99.838965
3.990000, 0.065880, 0.065986, 99.839090
3.992500, 0.065880, 0.065986, 99.839280
3.995000, 0.065880, 0.065986, 99.839511
3.997500, 0.065881, 0.065986, 99.839764
4.000000, 0.065881, 0.065986, 99.840076
4.002500, 0.065881, 0.065986, 99.840533
