Time, V_g(t), V_g(0), V_g(t)/V_g(0)
0.002500, 0.065986, 0.065986, 100.000000
0.005000, 0.065993, 0.065986, 100.010776
0.007500, 0.065995, 0.065986, 100.013031
0.010000, 0.065995, 0.065986, 100.013594
0.012500, 0.065995, 0.065986, 100.013537
0.015000, 0.065995, 0.065986, 100.012918
0.017500, 0.065994, 0.065986, 100.012270
0.020000, 0.065994, 0.065986, 100.011436
0.022500, 0.065993, 0.065986, 100.010608
0.025000, 0.065993, 0.065986, 100.009784
0.027500, 0.065992, 0.065986, 100.008818
0.030000, 0.065991, 0.065986, 100.007925
0.032500, 0.065991, 0.065986, 100.006937
0.035000, 0.065990, 0.065986, 100.005752
0.037500, 0.065989, 0.065986, 100.004742
0.040000, 0.065989, 0.065986, 100.003607
0.042500, 0.065988, 0.065986, 100.002323
0.045000, 0.065987, 0.065986, 100.001004
0.047500, 0.065986, 0.065986, 99.999581
0.050000, 0.065985, 0.065986, 99.998140
0.052500, 0.065984, 0.065986, 99.996770
0.055000, 0.065983, 0.065986, 99.995278
0.057500, 0.065982, 0.065986, 99.993790
0.060000, 0.065981, 0.065986, 99.992412
0.062500, 0.065980, 0.065986, 99.990936
0.065000, 0.065979, 0.065986, 99.989370
0.067500, 0.065978, 0.065986, 99.987945
0.070000, 0.065977, 0.065986, 99.986539
0.072500, 0.065976, 0.065986, 99.985155
0.075000, 0.065976, 0.065986, 99.983759
0.077500, 0.065975, 0.065986, 99.982363
0.080000, 0.065974, 0.065986, 99.981004
0.082500, 0.065973, 0.065986, 99.979672
0.085000, 0.065972, 0.065986, 99.978348
0.087500, 0.065971, 0.065986, 99.977047
0.090000, 0.065970, 0.065986, 99.975780
0.092500, 0.065969, 0.065986, 99.974553
0.095000, 0.065969, 0.065986, 99.973365
0.097500, 0.065968, 0.065986, 99.972221
0.100000, 0.065967, 0.065986, 99.971125
0.102500, 0.065967, 0.065986, 99.970085
0.105000, 0.065966, 0.065986, 99.969078
0.107500, 0.065965, 0.065986, 99.968005
0.110000, 0.065965, 0.065986, 99.967111
0.112500, 0.065964, 0.065986, 99.966269
0.115000, 0.065963, 0.065986, 99.965486
0.117500, 0.065963, 0.065986, 99.964763
0.120000, 0.065963, 0.065986, 99.964104
0.122500, 0.065962, 0.065986, 99.963501
0.125000, 0.065962, 0.065986, 99.962947
0.127500, 0.065961, 0.065986, 99.962437
0.130000, 0.065961, 0.065986, 99.961966
0.132500, 0.065961, 0.065986, 99.961531
0.135000, 0.065961, 0.065986, 99.961132
0.137500, 0.065960, 0.065986, 99.960769
0.140000, 0.065960, 0.065986, 99.960378
0.142500, 0.065960, 0.065986, 99.960044
0.145000, 0.065960, 0.065986, 99.959806
0.147500, 0.065960, 0.065986, 99.959593
0.150000, 0.065959, 0.065986, 99.959409
0.152500, 0.065959, 0.065986, 99.959251
0.155000, 0.065959, 0.065986, 99.959122
0.157500, 0.065959, 0.065986, 99.959011
0.160000, 0.065959, 0.065986, 99.958886
0.162500, 0.065959, 0.065986, 99.958756
0.165000, 0.065959, 0.065986, 99.958590
0.167500, 0.065959, 0.065986, 99.958412
0.170000, 0.065959, 0.065986, 99.958185
0.172500, 0.065958, 0.065986, 99.957938
0.175000, 0.065958, 0.065986, 99.957646
0.177500, 0.065958, 0.065986, 99.957310
0.180000, 0.065958, 0.065986, 99.956931
0.182500, 0.065958, 0.065986, 99.956507
0.185000, 0.065957, 0.065986, 99.956039
0.187500, 0.065957, 0.065986, 99.955525
0.190000, 0.065957, 0.065986, 99.954970
0.192500, 0.065956, 0.065986, 99.954370
0.195000, 0.065956, 0.065986, 99.953722
0.197500, 0.065955, 0.065986, 99.953031
0.200000, 0.065955, 0.065986, 99.952306
0.202500, 0.065954, 0.065986, 99.951553
0.205000, 0.065954, 0.065986, 99.950777
0.207500, 0.065953, 0.065986, 99.949986
0.210000, 0.065953, 0.065986, 99.949193
0.212500, 0.065952, 0.065986, 99.948412
0.215000, 0.065952, 0.065986, 99.947655
0.217500, 0.065951, 0.065986, 99.946938
0.220000, 0.065951, 0.065986, 99.946279
0.222500, 0.065950, 0.065986, 99.945701
0.225000, 0.065950, 0.065986, 99.945217
0.227500, 0.065950, 0.065986, 99.944823
0.230000, 0.065950, 0.065986, 99.944484
0.232500, 0.065949, 0.065986, 99.944187
0.235000, 0.065949, 0.065986, 99.943954
0.237500, 0.065949, 0.065986, 99.943768
0.240000, 0.065949, 0.065986, 99.943613
0.242500, 0.065949, 0.065986, 99.943486
0.245000, 0.065949, 0.065986, 99.943398
0.247500, 0.065949, 0.065986, 99.943352
0.250000, 0.065949, 0.065986, 99.943315
0.252500, 0.065949, 0.065986, 99.943279
0.255000, 0.065949, 0.065986, 99.943248
0.257500, 0.065949, 0.065986, 99.943226
0.260000, 0.065949, 0.065986, 99.943226
0.262500, 0.065949, 0.065986, 99.943259
0.265000, 0.065949, 0.065986, 99.943342
0.267500, 0.065949, 0.065986, 99.943467
0.270000, 0.065949, 0.065986, 99.943592
0.272500, 0.065949, 0.065986, 99.943722
0.275000, 0.065949, 0.065986, 99.943876
0.277500, 0.065949, 0.065986, 99.944078
0.280000, 0.065950, 0.065986, 99.944347
0.282500, 0.065950, 0.065986, 99.944708
0.285000, 0.065950, 0.065986, 99.945184
0.287500, 0.065950, 0.065986, 99.945799
0.290000, 0.065951, 0.065986, 99.946576
0.292500, 0.065952, 0.065986, 99.947484
0.295000, 0.065952, 0.065986, 99.948484
0.297500, 0.065953, 0.065986, 99.949590
0.300000, 0.065954, 0.065986, 99.950798
0.302500, 0.065955, 0.065986, 99.952092
0.305000, 0.065956, 0.065986, 99.953450
0.307500, 0.065956, 0.065986, 99.954824
0.310000, 0.065957, 0.065986, 99.956192
0.312500, 0.065958, 0.065986, 99.957511
0.315000, 0.065959, 0.065986, 99.958736
0.317500, 0.065960, 0.065986, 99.959992
0.320000, 0.065961, 0.065986, 99.961214
0.322500, 0.065961, 0.065986, 99.962383
0.325000, 0.065962, 0.065986, 99.963463
0.327500, 0.065963, 0.065986, 99.964355
0.330000, 0.065963, 0.065986, 99.965044
0.332500, 0.065963, 0.065986, 99.965519
0.335000, 0.065964, 0.065986, 99.965774
0.337500, 0.065964, 0.065986, 99.965811
0.340000, 0.065964, 0.065986, 99.965631
0.342500, 0.065963, 0.065986, 99.965252
0.345000, 0.065963, 0.065986, 99.964715
0.347500, 0.065963, 0.065986, 99.964032
0.350000, 0.065962, 0.065986, 99.963188
0.352500, 0.065961, 0.065986, 99.962197
0.355000, 0.065961, 0.065986, 99.961069
0.357500, 0.065960, 0.065986, 99.959829
0.360000, 0.065959, 0.065986, 99.958499
0.362500, 0.065958, 0.065986, 99.957127
0.365000, 0.065957, 0.065986, 99.955743
0.367500, 0.065956, 0.065986, 99.954295
0.370000, 0.065955, 0.065986, 99.952773
0.372500, 0.065954, 0.065986, 99.951188
0.375000, 0.065953, 0.065986, 99.949561
0.377500, 0.065952, 0.065986, 99.947931
0.380000, 0.065951, 0.065986, 99.946320
0.382500, 0.065950, 0.065986, 99.944761
0.385000, 0.065949, 0.065986, 99.943270
0.387500, 0.065948, 0.065986, 99.941815
0.390000, 0.065947, 0.065986, 99.940438
0.392500, 0.065946, 0.065986, 99.939203
0.395000, 0.065945, 0.065986, 99.938118
0.397500, 0.065945, 0.065986, 99.937193
0.400000, 0.065944, 0.065986, 99.936439
0.402500, 0.065944, 0.065986, 99.935856
0.405000, 0.065944, 0.065986, 99.935421
0.407500, 0.065943, 0.065986, 99.935107
0.410000, 0.065943, 0.065986, 99.934904
0.412500, 0.065943, 0.065986, 99.934794
0.415000, 0.065943, 0.065986, 99.934798
0.417500, 0.065943, 0.065986, 99.934973
0.420000, 0.065944, 0.065986, 99.935350
0.422500, 0.065944, 0.065986, 99.935930
0.425000, 0.065944, 0.065986, 99.936645
0.427500, 0.065945, 0.065986, 99.937492
0.430000, 0.065946, 0.065986, 99.938485
0.432500, 0.065946, 0.065986, 99.939572
0.435000, 0.065947, 0.065986, 99.940686
0.437500, 0.065948, 0.065986, 99.941862
0.440000, 0.065949, 0.065986, 99.943115
0.442500, 0.065950, 0.065986, 99.944438
0.445000, 0.065950, 0.065986, 99.945830
0.447500, 0.065951, 0.065986, 99.947288
0.450000, 0.065952, 0.065986, 99.948813
0.452500, 0.065954, 0.065986, 99.950473
0.455000, 0.065955, 0.065986, 99.952287
0.457500, 0.065956, 0.065986, 99.954232
0.460000, 0.065957, 0.065986, 99.956223
0.462500, 0.065959, 0.065986, 99.958226
0.465000, 0.065960, 0.065986, 99.960198
0.467500, 0.065961, 0.065986, 99.962101
0.470000, 0.065962, 0.065986, 99.963901
0.472500, 0.065964, 0.065986, 99.965607
0.475000, 0.065965, 0.065986, 99.967203
0.477500, 0.065966, 0.065986, 99.968579
0.480000, 0.065966, 0.065986, 99.969656
0.482500, 0.065967, 0.065986, 99.970418
0.485000, 0.065967, 0.065986, 99.970828
0.487500, 0.065967, 0.065986, 99.970903
0.490000, 0.065967, 0.065986, 99.970682
0.492500, 0.065967, 0.065986, 99.970213
0.495000, 0.065966, 0.065986, 99.969514
0.497500, 0.065966, 0.065986, 99.968611
0.500000, 0.065965, 0.065986, 99.967565
0.502500, 0.065964, 0.065986, 99.966341
0.505000, 0.065963, 0.065986, 99.964912
0.507500, 0.065962, 0.065986, 99.963301
0.510000, 0.065961, 0.065986, 99.961537
0.512500, 0.065960, 0.065986, 99.959628
0.515000, 0.065958, 0.065986, 99.957609
0.517500, 0.065957, 0.065986, 99.955523
0.520000, 0.065955, 0.065986, 99.953387
0.522500, 0.065954, 0.065986, 99.951211
0.525000, 0.065953, 0.065986, 99.949012
0.527500, 0.065951, 0.065986, 99.946800
0.530000, 0.065950, 0.065986, 99.944633
0.532500, 0.065948, 0.065986, 99.942604
0.535000, 0.065947, 0.065986, 99.940710
0.537500, 0.065946, 0.065986, 99.938927
0.540000, 0.065945, 0.065986, 99.937261
0.542500, 0.065944, 0.065986, 99.935709
0.545000, 0.065943, 0.065986, 99.934295
0.547500, 0.065942, 0.065986, 99.933086
0.550000, 0.065941, 0.065986, 99.932086
0.552500, 0.065941, 0.065986, 99.931299
0.555000, 0.065941, 0.065986, 99.930725
0.557500, 0.065940, 0.065986, 99.930334
0.560000, 0.065940, 0.065986, 99.930176
0.562500, 0.065940, 0.065986, 99.930207
0.565000, 0.065940, 0.065986, 99.930370
0.567500, 0.065940, 0.065986, 99.930646
0.570000, 0.065941, 0.065986, 99.931016
0.572500, 0.065941, 0.065986, 99.931492
0.575000, 0.065941, 0.065986, 99.932122
0.577500, 0.065942, 0.065986, 99.932922
0.580000, 0.065943, 0.065986, 99.933859
0.582500, 0.065943, 0.065986, 99.934858
0.585000, 0.065944, 0.065986, 99.935887
0.587500, 0.065945, 0.065986, 99.936943
0.590000, 0.065945, 0.065986, 99.938017
0.592500, 0.065946, 0.065986, 99.939119
0.595000, 0.065947, 0.065986, 99.940241
0.597500, 0.065948, 0.065986, 99.941333
0.600000, 0.065948, 0.065986, 99.942400
0.602500, 0.065949, 0.065986, 99.943488
0.605000, 0.065950, 0.065986, 99.944581
0.607500, 0.065950, 0.065986, 99.945659
0.610000, 0.065951, 0.065986, 99.946707
0.612500, 0.065952, 0.065986, 99.947706
0.615000, 0.065952, 0.065986, 99.948686
0.617500, 0.065953, 0.065986, 99.949684
0.620000, 0.065954, 0.065986, 99.950683
0.622500, 0.065954, 0.065986, 99.951665
0.625000, 0.065955, 0.065986, 99.952606
0.627500, 0.065956, 0.065986, 99.953510
0.630000, 0.065956, 0.065986, 99.954397
0.632500, 0.065957, 0.065986, 99.955237
0.635000, 0.065957, 0.065986, 99.955914
0.637500, 0.065957, 0.065986, 99.956388
0.640000, 0.065958, 0.065986, 99.956653
0.642500, 0.065958, 0.065986, 99.956705
0.645000, 0.065958, 0.065986, 99.956577
0.647500, 0.065957, 0.065986, 99.956308
0.650000, 0.065957, 0.065986, 99.955861
0.652500, 0.065957, 0.065986, 99.955244
0.655000, 0.065956, 0.065986, 99.954459
0.657500, 0.065956, 0.065986, 99.953504
0.660000, 0.065955, 0.065986, 99.952419
0.662500, 0.065954, 0.065986, 99.951238
0.665000, 0.065953, 0.065986, 99.950016
0.667500, 0.065952, 0.065986, 99.948728
0.670000, 0.065952, 0.065986, 99.947367
0.672500, 0.065951, 0.065986, 99.945930
0.675000, 0.065950, 0.065986, 99.944463
0.677500, 0.065949, 0.065986, 99.943014
0.680000, 0.065948, 0.065986, 99.941577
0.682500, 0.065947, 0.065986, 99.940146
0.685000, 0.065946, 0.065986, 99.938726
0.687500, 0.065945, 0.065986, 99.937311
0.690000, 0.065944, 0.065986, 99.935960
0.692500, 0.065943, 0.065986, 99.934697
0.695000, 0.065942, 0.065986, 99.933479
0.697500, 0.065942, 0.065986, 99.932301
0.700000, 0.065941, 0.065986, 99.931193
0.702500, 0.065940, 0.065986, 99.930135
0.705000, 0.065939, 0.065986, 99.929120
0.707500, 0.065939, 0.065986, 99.928148
0.710000, 0.065938, 0.065986, 99.927233
0.712500, 0.065938, 0.065986, 99.926369
0.715000, 0.065937, 0.065986, 99.925529
0.717500, 0.065937, 0.065986, 99.924711
0.720000, 0.065936, 0.065986, 99.923900
0.722500, 0.065936, 0.065986, 99.923184
0.725000, 0.065935, 0.065986, 99.922581
0.727500, 0.065935, 0.065986, 99.922034
0.730000, 0.065934, 0.065986, 99.921536
0.732500, 0.065934, 0.065986, 99.921095
0.735000, 0.065934, 0.065986, 99.920740
0.737500, 0.065934, 0.065986, 99.920623
0.740000, 0.065934, 0.065986, 99.920747
0.742500, 0.065934, 0.065986, 99.921085
0.745000, 0.065934, 0.065986, 99.921535
0.747500, 0.065935, 0.065986, 99.922056
0.750000, 0.065935, 0.065986, 99.922639
0.752500, 0.065936, 0.065986, 99.923282
0.755000, 0.065936, 0.065986, 99.923969
0.757500, 0.065937, 0.065986, 99.924672
0.760000, 0.065937, 0.065986, 99.925362
0.762500, 0.065937, 0.065986, 99.926070
0.765000, 0.065938, 0.065986, 99.926829
0.767500, 0.065938, 0.065986, 99.927608
0.770000, 0.065939, 0.065986, 99.928385
0.772500, 0.065939, 0.065986, 99.929136
0.775000, 0.065940, 0.065986, 99.929852
0.777500, 0.065940, 0.065986, 99.930628
0.780000, 0.065941, 0.065986, 99.931448
0.782500, 0.065942, 0.065986, 99.932275
0.785000, 0.065942, 0.065986, 99.933123
0.787500, 0.065943, 0.065986, 99.933978
0.790000, 0.065943, 0.065986, 99.934807
0.792500, 0.065944, 0.065986, 99.935594
0.795000, 0.065944, 0.065986, 99.936354
0.797500, 0.065945, 0.065986, 99.937021
0.800000, 0.065945, 0.065986, 99.937573
0.802500, 0.065945, 0.065986, 99.938021
0.805000, 0.065946, 0.065986, 99.938338
0.807500, 0.065946, 0.065986, 99.938509
0.810000, 0.065946, 0.065986, 99.938522
0.812500, 0.065946, 0.065986, 99.938367
0.815000, 0.065945, 0.065986, 99.938026
0.817500, 0.065945, 0.065986, 99.937515
0.820000, 0.065945, 0.065986, 99.936881
0.822500, 0.065944, 0.065986, 99.936188
0.825000, 0.065944, 0.065986, 99.935400
0.827500, 0.065943, 0.065986, 99.934473
0.830000, 0.065942, 0.065986, 99.933345
0.832500, 0.065941, 0.065986, 99.932001
0.835000, 0.065940, 0.065986, 99.930476
0.837500, 0.065939, 0.065986, 99.928807
0.840000, 0.065938, 0.065986, 99.926998
0.842500, 0.065937, 0.065986, 99.925058
0.845000, 0.065935, 0.065986, 99.922996
0.847500, 0.065934, 0.065986, 99.920842
0.850000, 0.065933, 0.065986, 99.918706
0.852500, 0.065931, 0.065986, 99.916710
0.855000, 0.065930, 0.065986, 99.914874
0.857500, 0.065929, 0.065986, 99.913190
0.860000, 0.065928, 0.065986, 99.911653
0.862500, 0.065927, 0.065986, 99.910253
0.865000, 0.065926, 0.065986, 99.908983
0.867500, 0.065925, 0.065986, 99.907825
0.870000, 0.065925, 0.065986, 99.906777
0.872500, 0.065924, 0.065986, 99.905841
0.875000, 0.065924, 0.065986, 99.904971
0.877500, 0.065923, 0.065986, 99.904132
0.880000, 0.065922, 0.065986, 99.903319
0.882500, 0.065922, 0.065986, 99.902531
0.885000, 0.065921, 0.065986, 99.901836
0.887500, 0.065921, 0.065986, 99.901294
0.890000, 0.065921, 0.065986, 99.900897
0.892500, 0.065921, 0.065986, 99.900626
0.895000, 0.065921, 0.065986, 99.900480
0.897500, 0.065921, 0.065986, 99.900527
0.900000, 0.065921, 0.065986, 99.900802
0.902500, 0.065921, 0.065986, 99.901266
0.905000, 0.065922, 0.065986, 99.901900
0.907500, 0.065922, 0.065986, 99.902665
0.910000, 0.065923, 0.065986, 99.903504
0.912500, 0.065923, 0.065986, 99.904351
0.915000, 0.065924, 0.065986, 99.905178
0.917500, 0.065924, 0.065986, 99.905949
0.920000, 0.065925, 0.065986, 99.906649
0.922500, 0.065925, 0.065986, 99.907257
0.925000, 0.065925, 0.065986, 99.907822
0.927500, 0.065926, 0.065986, 99.908358
0.930000, 0.065926, 0.065986, 99.908840
0.932500, 0.065926, 0.065986, 99.909239
0.935000, 0.065927, 0.065986, 99.909531
0.937500, 0.065927, 0.065986, 99.909735
0.940000, 0.065927, 0.065986, 99.909993
0.942500, 0.065927, 0.065986, 99.910343
0.945000, 0.065927, 0.065986, 99.910763
0.947500, 0.065928, 0.065986, 99.911246
0.950000, 0.065928, 0.065986, 99.911757
0.952500, 0.065928, 0.065986, 99.912304
0.955000, 0.065929, 0.065986, 99.912874
0.957500, 0.065929, 0.065986, 99.913478
0.960000, 0.065930, 0.065986, 99.914097
0.962500, 0.065930, 0.065986, 99.914627
0.965000, 0.065930, 0.065986, 99.915009
0.967500, 0.065930, 0.065986, 99.915237
0.970000, 0.065930, 0.065986, 99.915278
0.972500, 0.065930, 0.065986, 99.915155
0.975000, 0.065930, 0.065986, 99.914892
0.977500, 0.065930, 0.065986, 99.914493
0.980000, 0.065929, 0.065986, 99.913963
0.982500, 0.065929, 0.065986, 99.913352
0.985000, 0.065929, 0.065986, 99.912642
0.987500, 0.065928, 0.065986, 99.911815
0.990000, 0.065927, 0.065986, 99.910862
0.992500, 0.065927, 0.065986, 99.909774
0.995000, 0.065926, 0.065986, 99.908572
0.997500, 0.065925, 0.065986, 99.907249
1.000000, 0.065924, 0.065986, 99.905938
1.002500, 0.065923, 0.065986, 99.904433
1.005000, 0.065922, 0.065986, 99.902858
1.007500, 0.065921, 0.065986, 99.901281
1.010000, 0.065920, 0.065986, 99.899780
1.012500, 0.065919, 0.065986, 99.898443
1.015000, 0.065918, 0.065986, 99.897250
1.017500, 0.065918, 0.065986, 99.896166
1.020000, 0.065917, 0.065986, 99.895172
1.022500, 0.065916, 0.065986, 99.894249
1.025000, 0.065916, 0.065986, 99.893509
1.027500, 0.065915, 0.065986, 99.892637
1.030000, 0.065915, 0.065986, 99.891806
1.032500, 0.065914, 0.065986, 99.890996
1.035000, 0.065914, 0.065986, 99.890214
1.037500, 0.065913, 0.065986, 99.889455
1.040000, 0.065913, 0.065986, 99.888707
1.042500, 0.065912, 0.065986, 99.887976
1.045000, 0.065912, 0.065986, 99.887237
1.047500, 0.065911, 0.065986, 99.886566
1.050000, 0.065911, 0.065986, 99.886022
1.052500, 0.065911, 0.065986, 99.885632
1.055000, 0.065911, 0.065986, 99.885424
1.057500, 0.065911, 0.065986, 99.885352
1.060000, 0.065911, 0.065986, 99.885385
1.062500, 0.065911, 0.065986, 99.885569
1.065000, 0.065911, 0.065986, 99.885936
1.067500, 0.065911, 0.065986, 99.886455
1.070000, 0.065912, 0.065986, 99.887091
1.072500, 0.065912, 0.065986, 99.887819
1.075000, 0.065913, 0.065986, 99.888578
1.077500, 0.065913, 0.065986, 99.889309
1.080000, 0.065914, 0.065986, 99.889973
1.082500, 0.065914, 0.065986, 99.890532
1.085000, 0.065914, 0.065986, 99.890968
1.087500, 0.065915, 0.065986, 99.891326
1.090000, 0.065915, 0.065986, 99.891638
1.092500, 0.065915, 0.065986, 99.891882
1.095000, 0.065915, 0.065986, 99.892025
1.097500, 0.065915, 0.065986, 99.892056
1.100000, 0.065915, 0.065986, 99.892080
1.102500, 0.065915, 0.065986, 99.892292
1.105000, 0.065915, 0.065986, 99.892718
1.107500, 0.065916, 0.065986, 99.893329
1.110000, 0.065916, 0.065986, 99.894046
1.112500, 0.065917, 0.065986, 99.894819
1.115000, 0.065917, 0.065986, 99.895622
1.117500, 0.065918, 0.065986, 99.896501
1.120000, 0.065919, 0.065986, 99.897409
1.122500, 0.065919, 0.065986, 99.898301
1.125000, 0.065920, 0.065986, 99.899156
1.127500, 0.065920, 0.065986, 99.899908
1.130000, 0.065921, 0.065986, 99.900526
1.132500, 0.065921, 0.065986, 99.901004
1.135000, 0.065921, 0.065986, 99.901356
1.137500, 0.065921, 0.065986, 99.901553
1.140000, 0.065921, 0.065986, 99.901574
1.142500, 0.065921, 0.065986, 99.901448
1.145000, 0.065921, 0.065986, 99.901208
1.147500, 0.065921, 0.065986, 99.900833
1.150000, 0.065920, 0.065986, 99.900319
1.152500, 0.065920, 0.065986, 99.899644
1.155000, 0.065919, 0.065986, 99.898805
1.157500, 0.065919, 0.065986, 99.897844
1.160000, 0.065918, 0.065986, 99.896799
1.162500, 0.065917, 0.065986, 99.895650
1.165000, 0.065917, 0.065986, 99.894400
1.167500, 0.065916, 0.065986, 99.893113
1.170000, 0.065915, 0.065986, 99.891815
1.172500, 0.065914, 0.065986, 99.890619
1.175000, 0.065913, 0.065986, 99.889563
1.177500, 0.065913, 0.065986, 99.888623
1.180000, 0.065912, 0.065986, 99.887757
1.182500, 0.065912, 0.065986, 99.886937
1.185000, 0.065911, 0.065986, 99.886157
1.187500, 0.065911, 0.065986, 99.885405
1.190000, 0.065910, 0.065986, 99.884671
1.192500, 0.065910, 0.065986, 99.883959
1.195000, 0.065909, 0.065986, 99.883254
1.197500, 0.065909, 0.065986, 99.882551
1.200000, 0.065908, 0.065986, 99.881861
1.202500, 0.065908, 0.065986, 99.881192
1.205000, 0.065907, 0.065986, 99.880524
1.207500, 0.065907, 0.065986, 99.879822
1.210000, 0.065906, 0.065986, 99.879100
1.212500, 0.065906, 0.065986, 99.878439
1.215000, 0.065906, 0.065986, 99.877908
1.217500, 0.065905, 0.065986, 99.877543
1.220000, 0.065905, 0.065986, 99.877306
1.222500, 0.065905, 0.065986, 99.877169
1.225000, 0.065905, 0.065986, 99.877161
1.227500, 0.065905, 0.065986, 99.877311
1.230000, 0.065905, 0.065986, 99.877602
1.232500, 0.065906, 0.065986, 99.878003
1.235000, 0.065906, 0.065986, 99.878479
1.237500, 0.065906, 0.065986, 99.878990
1.240000, 0.065907, 0.065986, 99.879462
1.242500, 0.065907, 0.065986, 99.879853
1.245000, 0.065907, 0.065986, 99.880137
1.247500, 0.065907, 0.065986, 99.880298
1.250000, 0.065907, 0.065986, 99.880347
1.252500, 0.065907, 0.065986, 99.880336
1.255000, 0.065907, 0.065986, 99.880282
1.257500, 0.065907, 0.065986, 99.880223
1.260000, 0.065907, 0.065986, 99.880164
1.262500, 0.065907, 0.065986, 99.880184
1.265000, 0.065907, 0.065986, 99.880420
1.267500, 0.065908, 0.065986, 99.880899
1.270000, 0.065908, 0.065986, 99.881571
1.272500, 0.065909, 0.065986, 99.882387
1.275000, 0.065909, 0.065986, 99.883285
1.277500, 0.065910, 0.065986, 99.884302
1.280000, 0.065911, 0.065986, 99.885425
1.282500, 0.065911, 0.065986, 99.886632
1.285000, 0.065912, 0.065986, 99.887889
1.287500, 0.065913, 0.065986, 99.889149
1.290000, 0.065914, 0.065986, 99.890323
1.292500, 0.065915, 0.065986, 99.891372
1.295000, 0.065915, 0.065986, 99.892289
1.297500, 0.065916, 0.065986, 99.893038
1.300000, 0.065916, 0.065986, 99.893599
1.302500, 0.065916, 0.065986, 99.893952
1.305000, 0.065916, 0.065986, 99.894123
1.307500, 0.065916, 0.065986, 99.894146
1.310000, 0.065916, 0.065986, 99.894008
1.312500, 0.065916, 0.065986, 99.893704
1.315000, 0.065916, 0.065986, 99.893220
1.317500, 0.065915, 0.065986, 99.892553
1.320000, 0.065915, 0.065986, 99.891749
1.322500, 0.065914, 0.065986, 99.890844
1.325000, 0.065914, 0.065986, 99.889843
1.327500, 0.065913, 0.065986, 99.888806
1.330000, 0.065912, 0.065986, 99.887739
1.332500, 0.065911, 0.065986, 99.886654
1.335000, 0.065911, 0.065986, 99.885656
1.337500, 0.065910, 0.065986, 99.884763
1.340000, 0.065910, 0.065986, 99.883961
1.342500, 0.065909, 0.065986, 99.883225
1.345000, 0.065909, 0.065986, 99.882536
1.347500, 0.065908, 0.065986, 99.881899
1.350000, 0.065908, 0.065986, 99.881311
1.352500, 0.065908, 0.065986, 99.880740
1.355000, 0.065907, 0.065986, 99.880165
1.357500, 0.065907, 0.065986, 99.879581
1.360000, 0.065906, 0.065986, 99.878928
1.362500, 0.065906, 0.065986, 99.878204
1.365000, 0.065905, 0.065986, 99.877432
1.367500, 0.065905, 0.065986, 99.876617
1.370000, 0.065904, 0.065986, 99.875764
1.372500, 0.065904, 0.065986, 99.874852
1.375000, 0.065903, 0.065986, 99.873892
1.377500, 0.065902, 0.065986, 99.873039
1.380000, 0.065902, 0.065986, 99.872357
1.382500, 0.065902, 0.065986, 99.871807
1.385000, 0.065901, 0.065986, 99.871385
1.387500, 0.065901, 0.065986, 99.871067
1.390000, 0.065901, 0.065986, 99.870887
1.392500, 0.065901, 0.065986, 99.870844
1.395000, 0.065901, 0.065986, 99.870910
1.397500, 0.065901, 0.065986, 99.871046
1.400000, 0.065901, 0.065986, 99.871221
1.402500, 0.065901, 0.065986, 99.871405
1.405000, 0.065901, 0.065986, 99.871545
1.407500, 0.065902, 0.065986, 99.871608
1.410000, 0.065902, 0.065986, 99.871578
1.412500, 0.065901, 0.065986, 99.871452
1.415000, 0.065901, 0.065986, 99.871318
1.417500, 0.065901, 0.065986, 99.871250
1.420000, 0.065901, 0.065986, 99.871250
1.422500, 0.065901, 0.065986, 99.871313
1.425000, 0.065901, 0.065986, 99.871444
1.427500, 0.065902, 0.065986, 99.871716
1.430000, 0.065902, 0.065986, 99.872232
1.432500, 0.065902, 0.065986, 99.872970
1.435000, 0.065903, 0.065986, 99.873887
1.437500, 0.065904, 0.065986, 99.874919
1.440000, 0.065905, 0.065986, 99.876126
1.442500, 0.065905, 0.065986, 99.877477
1.445000, 0.065906, 0.065986, 99.878919
1.447500, 0.065907, 0.065986, 99.880410
1.450000, 0.065908, 0.065986, 99.881907
1.452500, 0.065909, 0.065986, 99.883341
1.455000, 0.065910, 0.065986, 99.884646
1.457500, 0.065911, 0.065986, 99.885805
1.460000, 0.065912, 0.065986, 99.886792
1.462500, 0.065912, 0.065986, 99.887590
1.465000, 0.065912, 0.065986, 99.888161
1.467500, 0.065913, 0.065986, 99.888518
1.470000, 0.065913, 0.065986, 99.888700
1.472500, 0.065913, 0.065986, 99.888718
1.475000, 0.065913, 0.065986, 99.888565
1.477500, 0.065912, 0.065986, 99.888221
1.480000, 0.065912, 0.065986, 99.887673
1.482500, 0.065912, 0.065986, 99.886955
1.485000, 0.065911, 0.065986, 99.886132
1.487500, 0.065911, 0.065986, 99.885240
1.490000, 0.065910, 0.065986, 99.884309
1.492500, 0.065909, 0.065986, 99.883348
1.495000, 0.065909, 0.065986, 99.882349
1.497500, 0.065908, 0.065986, 99.881374
1.500000, 0.065907, 0.065986, 99.880516
1.502500, 0.065907, 0.065986, 99.879762
1.505000, 0.065906, 0.065986, 99.879102
1.507500, 0.065906, 0.065986, 99.878509
1.510000, 0.065906, 0.065986, 99.877949
1.512500, 0.065905, 0.065986, 99.877409
1.515000, 0.065905, 0.065986, 99.876854
1.517500, 0.065905, 0.065986, 99.876271
1.520000, 0.065904, 0.065986, 99.875662
1.522500, 0.065904, 0.065986, 99.875018
1.525000, 0.065903, 0.065986, 99.874299
1.527500, 0.065903, 0.065986, 99.873514
1.530000, 0.065902, 0.065986, 99.872673
1.532500, 0.065902, 0.065986, 99.871787
1.535000, 0.065901, 0.065986, 99.870835
1.537500, 0.065900, 0.065986, 99.869799
1.540000, 0.065900, 0.065986, 99.868752
1.542500, 0.065899, 0.065986, 99.867865
1.545000, 0.065899, 0.065986, 99.867127
1.547500, 0.065898, 0.065986, 99.866515
1.550000, 0.065898, 0.065986, 99.866009
1.552500, 0.065898, 0.065986, 99.865593
1.555000, 0.065897, 0.065986, 99.865314
1.557500, 0.065897, 0.065986, 99.865174
1.560000, 0.065897, 0.065986, 99.865126
1.562500, 0.065897, 0.065986, 99.865148
1.565000, 0.065897, 0.065986, 99.865211
1.567500, 0.065897, 0.065986, 99.865287
1.570000, 0.065897, 0.065986, 99.865338
1.572500, 0.065897, 0.065986, 99.865332
1.575000, 0.065897, 0.065986, 99.865248
1.577500, 0.065897, 0.065986, 99.865135
1.580000, 0.065897, 0.065986, 99.865056
1.582500, 0.065897, 0.065986, 99.865058
1.585000, 0.065897, 0.065986, 99.865131
1.587500, 0.065897, 0.065986, 99.865287
1.590000, 0.065898, 0.065986, 99.865517
1.592500, 0.065898, 0.065986, 99.865894
1.595000, 0.065898, 0.065986, 99.866506
1.597500, 0.065899, 0.065986, 99.867323
1.600000, 0.065899, 0.065986, 99.868323
1.602500, 0.065900, 0.065986, 99.869532
1.605000, 0.065901, 0.065986, 99.870915
1.607500, 0.065902, 0.065986, 99.872411
1.610000, 0.065903, 0.065986, 99.873974
1.612500, 0.065904, 0.065986, 99.875553
1.615000, 0.065905, 0.065986, 99.877094
1.617500, 0.065906, 0.065986, 99.878540
1.620000, 0.065907, 0.065986, 99.879845
1.622500, 0.065908, 0.065986, 99.880980
1.625000, 0.065908, 0.065986, 99.881914
1.627500, 0.065909, 0.065986, 99.882634
1.630000, 0.065909, 0.065986, 99.883121
1.632500, 0.065909, 0.065986, 99.883395
1.635000, 0.065909, 0.065986, 99.883518
1.637500, 0.065909, 0.065986, 99.883498
1.640000, 0.065909, 0.065986, 99.883326
1.642500, 0.065909, 0.065986, 99.882969
1.645000, 0.065909, 0.065986, 99.882424
1.647500, 0.065908, 0.065986, 99.881728
1.650000, 0.065908, 0.065986, 99.880956
1.652500, 0.065907, 0.065986, 99.880206
1.655000, 0.065907, 0.065986, 99.879424
1.657500, 0.065906, 0.065986, 99.878547
1.660000, 0.065905, 0.065986, 99.877603
1.662500, 0.065905, 0.065986, 99.876741
1.665000, 0.065904, 0.065986, 99.876009
1.667500, 0.065904, 0.065986, 99.875402
1.670000, 0.065904, 0.065986, 99.874865
1.672500, 0.065903, 0.065986, 99.874366
1.675000, 0.065903, 0.065986, 99.873885
1.677500, 0.065903, 0.065986, 99.873404
1.680000, 0.065902, 0.065986, 99.872911
1.682500, 0.065902, 0.065986, 99.872381
1.685000, 0.065902, 0.065986, 99.871814
1.687500, 0.065901, 0.065986, 99.871196
1.690000, 0.065901, 0.065986, 99.870484
1.692500, 0.065900, 0.065986, 99.869694
1.695000, 0.065900, 0.065986, 99.868845
1.697500, 0.065899, 0.065986, 99.867953
1.700000, 0.065898, 0.065986, 99.867007
1.702500, 0.065898, 0.065986, 99.865988
1.705000, 0.065897, 0.065986, 99.864947
1.707500, 0.065897, 0.065986, 99.864041
1.710000, 0.065896, 0.065986, 99.863253
1.712500, 0.065896, 0.065986, 99.862579
1.715000, 0.065895, 0.065986, 99.862007
1.717500, 0.065895, 0.065986, 99.861524
1.720000, 0.065895, 0.065986, 99.861184
1.722500, 0.065894, 0.065986, 99.860958
1.725000, 0.065894, 0.065986, 99.860814
1.727500, 0.065894, 0.065986, 99.860694
1.730000, 0.065894, 0.065986, 99.860664
1.732500, 0.065894, 0.065986, 99.860664
1.735000, 0.065894, 0.065986, 99.860646
1.737500, 0.065894, 0.065986, 99.860566
1.740000, 0.065894, 0.065986, 99.860445
1.742500, 0.065894, 0.065986, 99.860290
1.745000, 0.065894, 0.065986, 99.860189
1.747500, 0.065894, 0.065986, 99.860178
1.750000, 0.065894, 0.065986, 99.860230
1.752500, 0.065894, 0.065986, 99.860367
1.755000, 0.065894, 0.065986, 99.860573
1.757500, 0.065894, 0.065986, 99.860899
1.760000, 0.065895, 0.065986, 99.861467
1.762500, 0.065895, 0.065986, 99.862259
1.765000, 0.065896, 0.065986, 99.863274
1.767500, 0.065897, 0.065986, 99.864523
1.770000, 0.065898, 0.065986, 99.865934
1.772500, 0.065899, 0.065986, 99.867451
1.775000, 0.065900, 0.065986, 99.869031
1.777500, 0.065901, 0.065986, 99.870604
1.780000, 0.065902, 0.065986, 99.872131
1.782500, 0.065903, 0.065986, 99.873577
1.785000, 0.065904, 0.065986, 99.874883
1.787500, 0.065904, 0.065986, 99.876017
1.790000, 0.065905, 0.065986, 99.876964
1.792500, 0.065906, 0.065986, 99.877718
1.795000, 0.065906, 0.065986, 99.878275
1.797500, 0.065906, 0.065986, 99.878648
1.800000, 0.065906, 0.065986, 99.878879
1.802500, 0.065906, 0.065986, 99.878964
1.805000, 0.065906, 0.065986, 99.878879
1.807500, 0.065906, 0.065986, 99.878614
1.810000, 0.065906, 0.065986, 99.878165
1.812500, 0.065905, 0.065986, 99.877557
1.815000, 0.065905, 0.065986, 99.876884
1.817500, 0.065905, 0.065986, 99.876184
1.820000, 0.065904, 0.065986, 99.875445
1.822500, 0.065904, 0.065986, 99.874649
1.825000, 0.065903, 0.065986, 99.873804
1.827500, 0.065902, 0.065986, 99.873031
1.830000, 0.065902, 0.065986, 99.872396
1.832500, 0.065902, 0.065986, 99.871874
1.835000, 0.065901, 0.065986, 99.871429
1.837500, 0.065901, 0.065986, 99.871026
1.840000, 0.065901, 0.065986, 99.870639
1.842500, 0.065901, 0.065986, 99.870246
1.845000, 0.065900, 0.065986, 99.869836
1.847500, 0.065900, 0.065986, 99.869398
1.850000, 0.065900, 0.065986, 99.868933
1.852500, 0.065899, 0.065986, 99.868421
1.855000, 0.065899, 0.065986, 99.867835
1.857500, 0.065899, 0.065986, 99.867155
1.860000, 0.065898, 0.065986, 99.866403
1.862500, 0.065898, 0.065986, 99.865565
1.865000, 0.065897, 0.065986, 99.864627
1.867500, 0.065896, 0.065986, 99.863579
1.870000, 0.065896, 0.065986, 99.862482
1.872500, 0.065895, 0.065986, 99.861489
1.875000, 0.065894, 0.065986, 99.860629
1.877500, 0.065894, 0.065986, 99.859884
1.880000, 0.065893, 0.065986, 99.859247
1.882500, 0.065893, 0.065986, 99.858687
1.885000, 0.065893, 0.065986, 99.858214
1.887500, 0.065892, 0.065986, 99.857860
1.890000, 0.065892, 0.065986, 99.857597
1.892500, 0.065892, 0.065986, 99.857411
1.895000, 0.065892, 0.065986, 99.857282
1.897500, 0.065892, 0.065986, 99.857181
1.900000, 0.065892, 0.065986, 99.857052
1.902500, 0.065892, 0.065986, 99.856870
1.905000, 0.065892, 0.065986, 99.856671
1.907500, 0.065892, 0.065986, 99.856460
1.910000, 0.065891, 0.065986, 99.856269
1.912500, 0.065891, 0.065986, 99.856170
1.915000, 0.065891, 0.065986, 99.856148
1.917500, 0.065891, 0.065986, 99.856228
1.920000, 0.065891, 0.065986, 99.856381
1.922500, 0.065892, 0.065986, 99.856604
1.925000, 0.065892, 0.065986, 99.857047
1.927500, 0.065892, 0.065986, 99.857753
1.930000, 0.065893, 0.065986, 99.858701
1.932500, 0.065894, 0.065986, 99.859901
1.935000, 0.065895, 0.065986, 99.861275
1.937500, 0.065896, 0.065986, 99.862785
1.940000, 0.065897, 0.065986, 99.864359
1.942500, 0.065898, 0.065986, 99.865949
1.945000, 0.065899, 0.065986, 99.867511
1.947500, 0.065900, 0.065986, 99.869020
1.950000, 0.065901, 0.065986, 99.870413
1.952500, 0.065902, 0.065986, 99.871667
1.955000, 0.065902, 0.065986, 99.872762
1.957500, 0.065903, 0.065986, 99.873671
1.960000, 0.065903, 0.065986, 99.874377
1.962500, 0.065904, 0.065986, 99.874876
1.965000, 0.065904, 0.065986, 99.875226
1.967500, 0.065904, 0.065986, 99.875429
1.970000, 0.065904, 0.065986, 99.875459
1.972500, 0.065904, 0.065986, 99.875304
1.975000, 0.065904, 0.065986, 99.874948
1.977500, 0.065903, 0.065986, 99.874400
1.980000, 0.065903, 0.065986, 99.873780
1.982500, 0.065903, 0.065986, 99.873136
1.985000, 0.065902, 0.065986, 99.872454
1.987500, 0.065902, 0.065986, 99.871720
1.990000, 0.065901, 0.065986, 99.870944
1.992500, 0.065901, 0.065986, 99.870214
1.995000, 0.065900, 0.065986, 99.869623
1.997500, 0.065900, 0.065986, 99.869154
2.000000, 0.065900, 0.065986, 99.868776
2.002500, 0.065899, 0.065986, 99.868456
2.005000, 0.065899, 0.065986, 99.868160
2.007500, 0.065899, 0.065986, 99.867875
2.010000, 0.065899, 0.065986, 99.867573
2.012500, 0.065899, 0.065986, 99.867246
2.015000, 0.065898, 0.065986, 99.866875
2.017500, 0.065898, 0.065986, 99.866452
2.020000, 0.065898, 0.065986, 99.865944
2.022500, 0.065897, 0.065986, 99.865330
2.025000, 0.065897, 0.065986, 99.864615
2.027500, 0.065896, 0.065986, 99.863799
2.030000, 0.065896, 0.065986, 99.862872
2.032500, 0.065895, 0.065986, 99.861823
2.035000, 0.065894, 0.065986, 99.860698
2.037500, 0.065894, 0.065986, 99.859605
2.040000, 0.065893, 0.065986, 99.858637
2.042500, 0.065892, 0.065986, 99.857801
2.045000, 0.065892, 0.065986, 99.857071
2.047500, 0.065892, 0.065986, 99.856423
2.050000, 0.065891, 0.065986, 99.855809
2.052500, 0.065891, 0.065986, 99.855297
2.055000, 0.065890, 0.065986, 99.854894
2.057500, 0.065890, 0.065986, 99.854587
2.060000, 0.065890, 0.065986, 99.854346
2.062500, 0.065890, 0.065986, 99.854148
2.065000, 0.065890, 0.065986, 99.853949
2.067500, 0.065890, 0.065986, 99.853713
2.070000, 0.065890, 0.065986, 99.853470
2.072500, 0.065889, 0.065986, 99.853224
2.075000, 0.065889, 0.065986, 99.852989
2.077500, 0.065889, 0.065986, 99.852817
2.080000, 0.065889, 0.065986, 99.852738
2.082500, 0.065889, 0.065986, 99.852759
2.085000, 0.065889, 0.065986, 99.852871
2.087500, 0.065889, 0.065986, 99.853041
2.090000, 0.065889, 0.065986, 99.853345
2.092500, 0.065890, 0.065986, 99.853930
2.095000, 0.065890, 0.065986, 99.854788
2.097500, 0.065891, 0.065986, 99.855911
2.100000, 0.065892, 0.065986, 99.857245
2.102500, 0.065893, 0.065986, 99.858737
2.105000, 0.065894, 0.065986, 99.860325
2.107500, 0.065895, 0.065986, 99.861955
2.110000, 0.065896, 0.065986, 99.863580
2.112500, 0.065897, 0.065986, 99.865175
2.115000, 0.065898, 0.065986, 99.866677
2.117500, 0.065899, 0.065986, 99.868054
2.120000, 0.065900, 0.065986, 99.869284
2.122500, 0.065901, 0.065986, 99.870343
2.125000, 0.065901, 0.065986, 99.871210
2.127500, 0.065902, 0.065986, 99.871865
2.130000, 0.065902, 0.065986, 99.872317
2.132500, 0.065902, 0.065986, 99.872612
2.135000, 0.065902, 0.065986, 99.872742
2.137500, 0.065902, 0.065986, 99.872696
2.140000, 0.065902, 0.065986, 99.872461
2.142500, 0.065902, 0.065986, 99.872029
2.145000, 0.065901, 0.065986, 99.871463
2.147500, 0.065901, 0.065986, 99.870873
2.150000, 0.065901, 0.065986, 99.870262
2.152500, 0.065900, 0.065986, 99.869609
2.155000, 0.065900, 0.065986, 99.868916
2.157500, 0.065899, 0.065986, 99.868215
2.160000, 0.065899, 0.065986, 99.867644
2.162500, 0.065899, 0.065986, 99.867213
2.165000, 0.065898, 0.065986, 99.866881
2.167500, 0.065898, 0.065986, 99.866612
2.170000, 0.065898, 0.065986, 99.866370
2.172500, 0.065898, 0.065986, 99.866140
2.175000, 0.065898, 0.065986, 99.865922
2.177500, 0.065898, 0.065986, 99.865653
2.180000, 0.065897, 0.065986, 99.865342
2.182500, 0.065897, 0.065986, 99.865015
2.185000, 0.065897, 0.065986, 99.864554
2.187500, 0.065896, 0.065986, 99.863984
2.190000, 0.065896, 0.065986, 99.863309
2.192500, 0.065896, 0.065986, 99.862537
2.195000, 0.065895, 0.065986, 99.861649
2.197500, 0.065894, 0.065986, 99.860654
2.200000, 0.065894, 0.065986, 99.859568
2.202500, 0.065893, 0.065986, 99.858442
2.205000, 0.065892, 0.065986, 99.857363
2.207500, 0.065891, 0.065986, 99.856403
2.210000, 0.065891, 0.065986, 99.855553
2.212500, 0.065890, 0.065986, 99.854795
2.215000, 0.065890, 0.065986, 99.854094
2.217500, 0.065890, 0.065986, 99.853432
2.220000, 0.065889, 0.065986, 99.852883
2.222500, 0.065889, 0.065986, 99.852447
2.225000, 0.065889, 0.065986, 99.852100
2.227500, 0.065888, 0.065986, 99.851821
2.230000, 0.065888, 0.065986, 99.851574
2.232500, 0.065888, 0.065986, 99.851309
2.235000, 0.065888, 0.065986, 99.851037
2.237500, 0.065888, 0.065986, 99.850775
2.240000, 0.065888, 0.065986, 99.850531
2.242500, 0.065887, 0.065986, 99.850304
2.245000, 0.065887, 0.065986, 99.850165
2.247500, 0.065887, 0.065986, 99.850130
2.250000, 0.065887, 0.065986, 99.850209
2.252500, 0.065887, 0.065986, 99.850321
2.255000, 0.065888, 0.065986, 99.850546
2.257500, 0.065888, 0.065986, 99.850979
2.260000, 0.065888, 0.065986, 99.851700
2.262500, 0.065889, 0.065986, 99.852700
2.265000, 0.065890, 0.065986, 99.853958
2.267500, 0.065891, 0.065986, 99.855376
2.270000, 0.065892, 0.065986, 99.856930
2.272500, 0.065893, 0.065986, 99.858561
2.275000, 0.065894, 0.065986, 99.860371
2.277500, 0.065895, 0.065986, 99.862012
2.280000, 0.065896, 0.065986, 99.863573
2.282500, 0.065897, 0.065986, 99.865039
2.285000, 0.065898, 0.065986, 99.866383
2.287500, 0.065899, 0.065986, 99.867580
2.290000, 0.065900, 0.065986, 99.868599
2.292500, 0.065900, 0.065986, 99.869410
2.295000, 0.065900, 0.065986, 99.869996
2.297500, 0.065901, 0.065986, 99.870398
2.300000, 0.065901, 0.065986, 99.870647
2.302500, 0.065901, 0.065986, 99.870728
2.305000, 0.065901, 0.065986, 99.870627
2.307500, 0.065901, 0.065986, 99.870334
2.310000, 0.065900, 0.065986, 99.869850
2.312500, 0.065900, 0.065986, 99.869295
2.315000, 0.065900, 0.065986, 99.868727
2.317500, 0.065899, 0.065986, 99.868136
2.320000, 0.065899, 0.065986, 99.867513
2.322500, 0.065898, 0.065986, 99.866887
2.325000, 0.065898, 0.065986, 99.866285
2.327500, 0.065898, 0.065986, 99.865824
2.330000, 0.065897, 0.065986, 99.865494
2.332500, 0.065897, 0.065986, 99.865240
2.335000, 0.065897, 0.065986, 99.865030
2.337500, 0.065897, 0.065986, 99.864841
2.340000, 0.065897, 0.065986, 99.864651
2.342500, 0.065897, 0.065986, 99.864442
2.345000, 0.065897, 0.065986, 99.864193
2.347500, 0.065896, 0.065986, 99.863890
2.350000, 0.065896, 0.065986, 99.863511
2.352500, 0.065896, 0.065986, 99.863032
2.355000, 0.065895, 0.065986, 99.862448
2.357500, 0.065895, 0.065986, 99.861746
2.360000, 0.065894, 0.065986, 99.860922
2.362500, 0.065894, 0.065986, 99.859993
2.365000, 0.065893, 0.065986, 99.858949
2.367500, 0.065892, 0.065986, 99.857794
2.370000, 0.065892, 0.065986, 99.856615
2.372500, 0.065891, 0.065986, 99.855484
2.375000, 0.065890, 0.065986, 99.854484
2.377500, 0.065890, 0.065986, 99.853614
2.380000, 0.065889, 0.065986, 99.852837
2.382500, 0.065889, 0.065986, 99.852098
2.385000, 0.065888, 0.065986, 99.851408
2.387500, 0.065888, 0.065986, 99.850844
2.390000, 0.065888, 0.065986, 99.850397
2.392500, 0.065887, 0.065986, 99.850042
2.395000, 0.065887, 0.065986, 99.849750
2.397500, 0.065887, 0.065986, 99.849482
2.400000, 0.065887, 0.065986, 99.849198
2.402500, 0.065887, 0.065986, 99.848923
2.405000, 0.065886, 0.065986, 99.848668
2.407500, 0.065886, 0.065986, 99.848428
2.410000, 0.065886, 0.065986, 99.848209
2.412500, 0.065886, 0.065986, 99.848083
2.415000, 0.065886, 0.065986, 99.848071
2.417500, 0.065886, 0.065986, 99.848174
2.420000, 0.065886, 0.065986, 99.848356
2.422500, 0.065886, 0.065986, 99.848616
2.425000, 0.065887, 0.065986, 99.849151
2.427500, 0.065887, 0.065986, 99.849988
2.430000, 0.065888, 0.065986, 99.851062
2.432500, 0.065889, 0.065986, 99.852367
2.435000, 0.065890, 0.065986, 99.853859
2.437500, 0.065891, 0.065986, 99.855466
2.440000, 0.065892, 0.065986, 99.857138
2.442500, 0.065893, 0.065986, 99.858829
2.445000, 0.065894, 0.065986, 99.860498
2.447500, 0.065895, 0.065986, 99.862108
2.450000, 0.065896, 0.065986, 99.863614
2.452500, 0.065897, 0.065986, 99.864989
2.455000, 0.065898, 0.065986, 99.866196
2.457500, 0.065899, 0.065986, 99.867209
2.460000, 0.065899, 0.065986, 99.868006
2.462500, 0.065900, 0.065986, 99.868576
2.465000, 0.065900, 0.065986, 99.868968
2.467500, 0.065900, 0.065986, 99.869204
2.470000, 0.065900, 0.065986, 99.869270
2.472500, 0.065900, 0.065986, 99.869154
2.475000, 0.065900, 0.065986, 99.868845
2.477500, 0.065899, 0.065986, 99.868356
2.480000, 0.065899, 0.065986, 99.867823
2.482500, 0.065899, 0.065986, 99.867284
2.485000, 0.065898, 0.065986, 99.866722
2.487500, 0.065898, 0.065986, 99.866143
2.490000, 0.065898, 0.065986, 99.865552
2.492500, 0.065897, 0.065986, 99.865001
2.495000, 0.065897, 0.065986, 99.864589
2.497500, 0.065897, 0.065986, 99.864294
2.500000, 0.065897, 0.065986, 99.864074
2.502500, 0.065896, 0.065986, 99.863893
2.505000, 0.065896, 0.065986, 99.863730
2.507500, 0.065896, 0.065986, 99.863562
2.510000, 0.065896, 0.065986, 99.863367
2.512500, 0.065896, 0.065986, 99.863125
2.515000, 0.065896, 0.065986, 99.862825
2.517500, 0.065895, 0.065986, 99.862444
2.520000, 0.065895, 0.065986, 99.861965
2.522500, 0.065895, 0.065986, 99.861373
2.525000, 0.065894, 0.065986, 99.860651
2.527500, 0.065894, 0.065986, 99.859802
2.530000, 0.065893, 0.065986, 99.858838
2.532500, 0.065892, 0.065986, 99.857757
2.535000, 0.065892, 0.065986, 99.856569
2.537500, 0.065891, 0.065986, 99.855358
2.540000, 0.065890, 0.065986, 99.854216
2.542500, 0.065889, 0.065986, 99.853209
2.545000, 0.065889, 0.065986, 99.852320
2.547500, 0.065888, 0.065986, 99.851520
2.550000, 0.065888, 0.065986, 99.850743
2.552500, 0.065887, 0.065986, 99.850025
2.555000, 0.065887, 0.065986, 99.849441
2.557500, 0.065887, 0.065986, 99.848980
2.560000, 0.065886, 0.065986, 99.848613
2.562500, 0.065886, 0.065986, 99.848315
2.565000, 0.065886, 0.065986, 99.848026
2.567500, 0.065886, 0.065986, 99.847731
2.570000, 0.065886, 0.065986, 99.847455
2.572500, 0.065885, 0.065986, 99.847205
2.575000, 0.065885, 0.065986, 99.846970
2.577500, 0.065885, 0.065986, 99.846763
2.580000, 0.065885, 0.065986, 99.846652
2.582500, 0.065885, 0.065986, 99.846658
2.585000, 0.065885, 0.065986, 99.846783
2.587500, 0.065885, 0.065986, 99.846988
2.590000, 0.065885, 0.065986, 99.847281
2.592500, 0.065886, 0.065986, 99.847846
2.595000, 0.065886, 0.065986, 99.848710
2.597500, 0.065887, 0.065986, 99.849928
2.600000, 0.065888, 0.065986, 99.851449
2.602500, 0.065889, 0.065986, 99.852896
2.605000, 0.065890, 0.065986, 99.854469
2.607500, 0.065891, 0.065986, 99.856116
2.610000, 0.065892, 0.065986, 99.857792
2.612500, 0.065894, 0.065986, 99.859450
2.615000, 0.065895, 0.065986, 99.861047
2.617500, 0.065896, 0.065986, 99.862543
2.620000, 0.065896, 0.065986, 99.863901
2.622500, 0.065897, 0.065986, 99.865090
2.625000, 0.065898, 0.065986, 99.866082
2.627500, 0.065898, 0.065986, 99.866860
2.630000, 0.065899, 0.065986, 99.867417
2.632500, 0.065899, 0.065986, 99.867795
2.635000, 0.065899, 0.065986, 99.868023
2.637500, 0.065899, 0.065986, 99.868083
2.640000, 0.065899, 0.065986, 99.867963
2.642500, 0.065899, 0.065986, 99.867651
2.645000, 0.065899, 0.065986, 99.867167
2.647500, 0.065898, 0.065986, 99.866651
2.650000, 0.065898, 0.065986, 99.866133
2.652500, 0.065898, 0.065986, 99.865594
2.655000, 0.065897, 0.065986, 99.865045
2.657500, 0.065897, 0.065986, 99.864486
2.660000, 0.065896, 0.065986, 99.863967
2.662500, 0.065896, 0.065986, 99.863587
2.665000, 0.065896, 0.065986, 99.863326
2.667500, 0.065896, 0.065986, 99.863134
2.670000, 0.065896, 0.065986, 99.862980
2.672500, 0.065896, 0.065986, 99.862842
2.675000, 0.065896, 0.065986, 99.862698
2.677500, 0.065896, 0.065986, 99.862525
2.680000, 0.065895, 0.065986, 99.862304
2.682500, 0.065895, 0.065986, 99.862026
2.685000, 0.065895, 0.065986, 99.861667
2.687500, 0.065895, 0.065986, 99.861209
2.690000, 0.065894, 0.065986, 99.860635
2.692500, 0.065894, 0.065986, 99.859915
2.695000, 0.065893, 0.065986, 99.859055
2.697500, 0.065893, 0.065986, 99.858080
2.700000, 0.065892, 0.065986, 99.856990
2.702500, 0.065891, 0.065986, 99.855791
2.705000, 0.065890, 0.065986, 99.854558
2.707500, 0.065889, 0.065986, 99.853375
2.710000, 0.065889, 0.065986, 99.852326
2.712500, 0.065888, 0.065986, 99.851403
2.715000, 0.065888, 0.065986, 99.850563
2.717500, 0.065887, 0.065986, 99.849746
2.720000, 0.065887, 0.065986, 99.848975
2.722500, 0.065886, 0.065986, 99.848343
2.725000, 0.065886, 0.065986, 99.847839
2.727500, 0.065886, 0.065986, 99.847436
2.730000, 0.065885, 0.065986, 99.847102
2.732500, 0.065885, 0.065986, 99.846781
2.735000, 0.065885, 0.065986, 99.846459
2.737500, 0.065885, 0.065986, 99.846165
2.740000, 0.065885, 0.065986, 99.845904
2.742500, 0.065884, 0.065986, 99.845666
2.745000, 0.065884, 0.065986, 99.845448
2.747500, 0.065884, 0.065986, 99.845321
2.750000, 0.065884, 0.065986, 99.845317
2.752500, 0.065884, 0.065986, 99.845440
2.755000, 0.065884, 0.065986, 99.845652
2.757500, 0.065885, 0.065986, 99.845946
2.760000, 0.065885, 0.065986, 99.846489
2.762500, 0.065886, 0.065986, 99.847338
2.765000, 0.065886, 0.065986, 99.848430
2.767500, 0.065887, 0.065986, 99.849767
2.770000, 0.065888, 0.065986, 99.851286
2.772500, 0.065889, 0.065986, 99.852927
2.775000, 0.065890, 0.065986, 99.854640
2.777500, 0.065891, 0.065986, 99.856382
2.780000, 0.065893, 0.065986, 99.858101
2.782500, 0.065894, 0.065986, 99.859753
2.785000, 0.065895, 0.065986, 99.861302
2.787500, 0.065896, 0.065986, 99.862710
2.790000, 0.065896, 0.065986, 99.863945
2.792500, 0.065897, 0.065986, 99.864983
2.795000, 0.065898, 0.065986, 99.865809
2.797500, 0.065898, 0.065986, 99.866408
2.800000, 0.065898, 0.065986, 99.866816
2.802500, 0.065899, 0.065986, 99.867074
2.805000, 0.065899, 0.065986, 99.867168
2.807500, 0.065899, 0.065986, 99.867085
2.810000, 0.065898, 0.065986, 99.866812
2.812500, 0.065898, 0.065986, 99.866359
2.815000, 0.065898, 0.065986, 99.865863
2.817500, 0.065897, 0.065986, 99.865370
2.820000, 0.065897, 0.065986, 99.864858
2.822500, 0.065897, 0.065986, 99.864339
2.825000, 0.065896, 0.065986, 99.863812
2.827500, 0.065896, 0.065986, 99.863301
2.830000, 0.065896, 0.065986, 99.862923
2.832500, 0.065896, 0.065986, 99.862665
2.835000, 0.065895, 0.065986, 99.862480
2.837500, 0.065895, 0.065986, 99.862337
2.840000, 0.065895, 0.065986, 99.862213
2.842500, 0.065895, 0.065986, 99.862085
2.845000, 0.065895, 0.065986, 99.861932
2.847500, 0.065895, 0.065986, 99.861735
2.850000, 0.065895, 0.065986, 99.861482
2.852500, 0.065895, 0.065986, 99.861150
2.855000, 0.065894, 0.065986, 99.860719
2.857500, 0.065894, 0.065986, 99.860170
2.860000, 0.065894, 0.065986, 99.859467
2.862500, 0.065893, 0.065986, 99.858619
2.865000, 0.065892, 0.065986, 99.857653
2.867500, 0.065892, 0.065986, 99.856574
2.870000, 0.065891, 0.065986, 99.855373
2.872500, 0.065890, 0.065986, 99.854110
2.875000, 0.065889, 0.065986, 99.852877
2.877500, 0.065888, 0.065986, 99.851775
2.880000, 0.065888, 0.065986, 99.850806
2.882500, 0.065887, 0.065986, 99.849927
2.885000, 0.065887, 0.065986, 99.849080
2.887500, 0.065886, 0.065986, 99.848264
2.890000, 0.065886, 0.065986, 99.847579
2.892500, 0.065885, 0.065986, 99.847034
2.895000, 0.065885, 0.065986, 99.846598
2.897500, 0.065885, 0.065986, 99.846242
2.900000, 0.065885, 0.065986, 99.845908
2.902500, 0.065884, 0.065986, 99.845575
2.905000, 0.065884, 0.065986, 99.845274
2.907500, 0.065884, 0.065986, 99.845014
2.910000, 0.065884, 0.065986, 99.844785
2.912500, 0.065884, 0.065986, 99.844571
2.915000, 0.065884, 0.065986, 99.844436
2.917500, 0.065884, 0.065986, 99.844418
2.920000, 0.065884, 0.065986, 99.844537
2.922500, 0.065884, 0.065986, 99.844757
2.925000, 0.065884, 0.065986, 99.845026
2.927500, 0.065884, 0.065986, 99.845473
2.930000, 0.065885, 0.065986, 99.846311
2.932500, 0.065886, 0.065986, 99.847410
2.935000, 0.065886, 0.065986, 99.848732
2.937500, 0.065887, 0.065986, 99.850257
2.940000, 0.065889, 0.065986, 99.851897
2.942500, 0.065890, 0.065986, 99.853612
2.945000, 0.065891, 0.065986, 99.855367
2.947500, 0.065892, 0.065986, 99.857109
2.950000, 0.065893, 0.065986, 99.858788
2.952500, 0.065894, 0.065986, 99.860374
2.955000, 0.065895, 0.065986, 99.861820
2.957500, 0.065896, 0.065986, 99.863099
2.960000, 0.065897, 0.065986, 99.864184
2.962500, 0.065897, 0.065986, 99.865059
2.965000, 0.065898, 0.065986, 99.865697
2.967500, 0.065898, 0.065986, 99.866129
2.970000, 0.065898, 0.065986, 99.866412
2.972500, 0.065898, 0.065986, 99.866529
2.975000, 0.065898, 0.065986, 99.866499
2.977500, 0.065898, 0.065986, 99.866270
2.980000, 0.065898, 0.065986, 99.865863
2.982500, 0.065897, 0.065986, 99.865369
2.985000, 0.065897, 0.065986, 99.864881
2.987500, 0.065897, 0.065986, 99.864380
2.990000, 0.065896, 0.065986, 99.863869
2.992500, 0.065896, 0.065986, 99.863354
2.995000, 0.065896, 0.065986, 99.862832
2.997500, 0.065895, 0.065986, 99.862417
3.000000, 0.065895, 0.065986, 99.862125
3.002500, 0.065895, 0.065986, 99.861911
3.005000, 0.065895, 0.065986, 99.861756
3.007500, 0.065895, 0.065986, 99.861669
3.010000, 0.065895, 0.065986, 99.861599
3.012500, 0.065895, 0.065986, 99.861437
3.015000, 0.065895, 0.065986, 99.861277
3.017500, 0.065895, 0.065986, 99.861063
3.020000, 0.065894, 0.065986, 99.860761
3.022500, 0.065894, 0.065986, 99.860351
3.025000, 0.065894, 0.065986, 99.859846
3.027500, 0.065893, 0.065986, 99.859196
3.030000, 0.065893, 0.065986, 99.858364
3.032500, 0.065892, 0.065986, 99.857426
3.035000, 0.065891, 0.065986, 99.856359
3.037500, 0.065891, 0.065986, 99.855203
3.040000, 0.065890, 0.065986, 99.853897
3.042500, 0.065889, 0.065986, 99.852621
3.045000, 0.065888, 0.065986, 99.851394
3.047500, 0.065887, 0.065986, 99.850300
3.050000, 0.065887, 0.065986, 99.849339
3.052500, 0.065886, 0.065986, 99.848423
3.055000, 0.065886, 0.065986, 99.847527
3.057500, 0.065885, 0.065986, 99.846707
3.060000, 0.065885, 0.065986, 99.846041
3.062500, 0.065884, 0.065986, 99.845508
3.065000, 0.065884, 0.065986, 99.845253
3.067500, 0.065884, 0.065986, 99.844904
3.070000, 0.065884, 0.065986, 99.844549
3.072500, 0.065883, 0.065986, 99.844189
3.075000, 0.065883, 0.065986, 99.843713
3.077500, 0.065883, 0.065986, 99.843470
3.080000, 0.065883, 0.065986, 99.843288
3.082500, 0.065883, 0.065986, 99.843129
3.085000, 0.065883, 0.065986, 99.843078
3.087500, 0.065883, 0.065986, 99.843170
3.090000, 0.065883, 0.065986, 99.843539
3.092500, 0.065883, 0.065986, 99.843844
3.095000, 0.065883, 0.065986, 99.844229
3.097500, 0.065884, 0.065986, 99.844886
3.100000, 0.065884, 0.065986, 99.845806
3.102500, 0.065885, 0.065986, 99.846978
3.105000, 0.065886, 0.065986, 99.848381
3.107500, 0.065887, 0.065986, 99.849954
3.110000, 0.065888, 0.065986, 99.851646
3.112500, 0.065890, 0.065986, 99.853409
3.115000, 0.065891, 0.065986, 99.855192
3.117500, 0.065892, 0.065986, 99.856928
3.120000, 0.065893, 0.065986, 99.858590
3.122500, 0.065894, 0.065986, 99.860134
3.125000, 0.065895, 0.065986, 99.861526
3.127500, 0.065896, 0.065986, 99.862740
3.130000, 0.065896, 0.065986, 99.863758
3.132500, 0.065897, 0.065986, 99.864560
3.135000, 0.065897, 0.065986, 99.865134
3.137500, 0.065898, 0.065986, 99.865519
3.140000, 0.065898, 0.065986, 99.865759
3.142500, 0.065898, 0.065986, 99.865837
3.145000, 0.065898, 0.065986, 99.865742
3.147500, 0.065897, 0.065986, 99.865457
3.150000, 0.065897, 0.065986, 99.865017
3.152500, 0.065897, 0.065986, 99.864556
3.155000, 0.065897, 0.065986, 99.864096
3.157500, 0.065896, 0.065986, 99.863647
3.160000, 0.065896, 0.065986, 99.863187
3.162500, 0.065896, 0.065986, 99.862721
3.165000, 0.065895, 0.065986, 99.862267
3.167500, 0.065895, 0.065986, 99.861942
3.170000, 0.065895, 0.065986, 99.861718
3.172500, 0.065895, 0.065986, 99.861559
3.175000, 0.065895, 0.065986, 99.861436
3.177500, 0.065895, 0.065986, 99.861332
3.180000, 0.065895, 0.065986, 99.861223
3.182500, 0.065895, 0.065986, 99.861085
3.185000, 0.065894, 0.065986, 99.860908
3.187500, 0.065894, 0.065986, 99.860670
3.190000, 0.065894, 0.065986, 99.860346
3.192500, 0.065894, 0.065986, 99.859915
3.195000, 0.065893, 0.065986, 99.859353
3.197500, 0.065893, 0.065986, 99.858630
3.200000, 0.065892, 0.065986, 99.857752
3.202500, 0.065892, 0.065986, 99.856757
3.205000, 0.065891, 0.065986, 99.855646
3.207500, 0.065890, 0.065986, 99.854392
3.210000, 0.065889, 0.065986, 99.853066
3.212500, 0.065888, 0.065986, 99.851749
3.215000, 0.065888, 0.065986, 99.850533
3.217500, 0.065887, 0.065986, 99.849452
3.220000, 0.065886, 0.065986, 99.848462
3.222500, 0.065886, 0.065986, 99.847514
3.225000, 0.065885, 0.065986, 99.846598
3.227500, 0.065884, 0.065986, 99.845786
3.230000, 0.065884, 0.065986, 99.845126
3.232500, 0.065884, 0.065986, 99.844596
3.235000, 0.065883, 0.065986, 99.844162
3.237500, 0.065883, 0.065986, 99.843764
3.240000, 0.065883, 0.065986, 99.843405
3.242500, 0.065883, 0.065986, 99.843107
3.245000, 0.065883, 0.065986, 99.842873
3.247500, 0.065882, 0.065986, 99.842684
3.250000, 0.065882, 0.065986, 99.842516
3.252500, 0.065882, 0.065986, 99.842387
3.255000, 0.065882, 0.065986, 99.842379
3.257500, 0.065882, 0.065986, 99.842520
3.260000, 0.065882, 0.065986, 99.842779
3.262500, 0.065883, 0.065986, 99.843134
3.265000, 0.065883, 0.065986, 99.843633
3.267500, 0.065884, 0.065986, 99.844395
3.270000, 0.065884, 0.065986, 99.845391
3.272500, 0.065885, 0.065986, 99.846631
3.275000, 0.065886, 0.065986, 99.848085
3.277500, 0.065887, 0.065986, 99.849698
3.280000, 0.065888, 0.065986, 99.851418
3.282500, 0.065889, 0.065986, 99.853207
3.285000, 0.065891, 0.065986, 99.855001
3.287500, 0.065892, 0.065986, 99.856737
3.290000, 0.065893, 0.065986, 99.858385
3.292500, 0.065894, 0.065986, 99.859906
3.295000, 0.065895, 0.065986, 99.861268
3.297500, 0.065895, 0.065986, 99.862453
3.300000, 0.065896, 0.065986, 99.863442
3.302500, 0.065897, 0.065986, 99.864214
3.305000, 0.065897, 0.065986, 99.864761
3.307500, 0.065897, 0.065986, 99.865127
3.310000, 0.065897, 0.065986, 99.865345
3.312500, 0.065897, 0.065986, 99.865405
3.315000, 0.065897, 0.065986, 99.865287
3.317500, 0.065897, 0.065986, 99.864987
3.320000, 0.065897, 0.065986, 99.864556
3.322500, 0.065897, 0.065986, 99.864116
3.325000, 0.065896, 0.065986, 99.863683
3.327500, 0.065896, 0.065986, 99.863261
3.330000, 0.065896, 0.065986, 99.862846
3.332500, 0.065895, 0.065986, 99.862422
3.335000, 0.065895, 0.065986, 99.862022
3.337500, 0.065895, 0.065986, 99.861745
3.340000, 0.065895, 0.065986, 99.861559
3.342500, 0.065895, 0.065986, 99.861432
3.345000, 0.065895, 0.065986, 99.861342
3.347500, 0.065895, 0.065986, 99.861265
3.350000, 0.065895, 0.065986, 99.861178
3.352500, 0.065895, 0.065986, 99.861063
3.355000, 0.065894, 0.065986, 99.860908
3.357500, 0.065894, 0.065986, 99.860690
3.360000, 0.065894, 0.065986, 99.860381
3.362500, 0.065894, 0.065986, 99.859950
3.365000, 0.065893, 0.065986, 99.859371
3.367500, 0.065893, 0.065986, 99.858640
3.370000, 0.065892, 0.065986, 99.857758
3.372500, 0.065892, 0.065986, 99.856734
3.375000, 0.065891, 0.065986, 99.855585
3.377500, 0.065890, 0.065986, 99.854287
3.380000, 0.065889, 0.065986, 99.852918
3.382500, 0.065888, 0.065986, 99.851549
3.385000, 0.065887, 0.065986, 99.850179
3.387500, 0.065887, 0.065986, 99.848889
3.390000, 0.065886, 0.065986, 99.847705
3.392500, 0.065885, 0.065986, 99.846582
3.395000, 0.065884, 0.065986, 99.845503
3.397500, 0.065884, 0.065986, 99.844460
3.400000, 0.065883, 0.065986, 99.843516
3.402500, 0.065882, 0.065986, 99.842718
3.405000, 0.065882, 0.065986, 99.842043
3.407500, 0.065882, 0.065986, 99.841443
3.410000, 0.065881, 0.065986, 99.840931
3.412500, 0.065881, 0.065986, 99.840515
3.415000, 0.065881, 0.065986, 99.840199
3.417500, 0.065881, 0.065986, 99.839964
3.420000, 0.065881, 0.065986, 99.839784
3.422500, 0.065880, 0.065986, 99.839635
3.425000, 0.065880, 0.065986, 99.839544
3.427500, 0.065880, 0.065986, 99.839623
3.430000, 0.065881, 0.065986, 99.839861
3.432500, 0.065881, 0.065986, 99.840403
3.435000, 0.065881, 0.065986, 99.840918
3.437500, 0.065882, 0.065986, 99.841537
3.440000, 0.065882, 0.065986, 99.842354
3.442500, 0.065883, 0.065986, 99.843445
3.445000, 0.065884, 0.065986, 99.844789
3.447500, 0.065885, 0.065986, 99.846332
3.450000, 0.065886, 0.065986, 99.848032
3.452500, 0.065887, 0.065986, 99.849851
3.455000, 0.065888, 0.065986, 99.851725
3.457500, 0.065890, 0.065986, 99.853570
3.460000, 0.065891, 0.065986, 99.855357
3.462500, 0.065892, 0.065986, 99.857044
3.465000, 0.065893, 0.065986, 99.858602
3.467500, 0.065894, 0.065986, 99.860002
3.470000, 0.065895, 0.065986, 99.861229
3.472500, 0.065895, 0.065986, 99.862260
3.475000, 0.065896, 0.065986, 99.863077
3.477500, 0.065896, 0.065986, 99.863668
3.480000, 0.065897, 0.065986, 99.864065
3.482500, 0.065897, 0.065986, 99.864316
3.485000, 0.065897, 0.065986, 99.864408
3.487500, 0.065897, 0.065986, 99.864329
3.490000, 0.065897, 0.065986, 99.864111
3.492500, 0.065896, 0.065986, 99.863813
3.495000, 0.065896, 0.065986, 99.863506
3.497500, 0.065896, 0.065986, 99.863238
3.500000, 0.065896, 0.065986, 99.862991
3.502500, 0.065896, 0.065986, 99.862745
3.505000, 0.065896, 0.065986, 99.862484
3.507500, 0.065895, 0.065986, 99.862210
3.510000, 0.065895, 0.065986, 99.862003
3.512500, 0.065895, 0.065986, 99.861874
3.515000, 0.065895, 0.065986, 99.861796
3.517500, 0.065895, 0.065986, 99.861746
3.520000, 0.065895, 0.065986, 99.861701
3.522500, 0.065895, 0.065986, 99.861654
3.525000, 0.065895, 0.065986, 99.861606
3.527500, 0.065895, 0.065986, 99.861490
3.530000, 0.065895, 0.065986, 99.861289
3.532500, 0.065895, 0.065986, 99.860967
3.535000, 0.065894, 0.065986, 99.860510
3.537500, 0.065894, 0.065986, 99.859912
3.540000, 0.065893, 0.065986, 99.859171
3.542500, 0.065893, 0.065986, 99.858284
3.545000, 0.065892, 0.065986, 99.857253
3.547500, 0.065891, 0.065986, 99.856033
3.550000, 0.065890, 0.065986, 99.854637
3.552500, 0.065889, 0.065986, 99.853171
3.555000, 0.065888, 0.065986, 99.851708
3.557500, 0.065887, 0.065986, 99.850223
3.560000, 0.065886, 0.065986, 99.848745
3.562500, 0.065886, 0.065986, 99.847378
3.565000, 0.065885, 0.065986, 99.846114
3.567500, 0.065884, 0.065986, 99.844909
3.570000, 0.065883, 0.065986, 99.843742
3.572500, 0.065882, 0.065986, 99.842613
3.575000, 0.065882, 0.065986, 99.841608
3.577500, 0.065881, 0.065986, 99.840751
3.580000, 0.065881, 0.065986, 99.840060
3.582500, 0.065880, 0.065986, 99.839527
3.585000, 0.065880, 0.065986, 99.839139
3.587500, 0.065880, 0.065986, 99.838877
3.590000, 0.065880, 0.065986, 99.838712
3.592500, 0.065880, 0.065986, 99.838634
3.595000, 0.065880, 0.065986, 99.838644
3.597500, 0.065880, 0.065986, 99.838605
3.600000, 0.065880, 0.065986, 99.838648
3.602500, 0.065880, 0.065986, 99.838880
3.605000, 0.065880, 0.065986, 99.839311
3.607500, 0.065881, 0.065986, 99.839896
3.610000, 0.065881, 0.065986, 99.840546
3.612500, 0.065881, 0.065986, 99.841240
3.615000, 0.065882, 0.065986, 99.842140
3.617500, 0.065883, 0.065986, 99.843313
3.620000, 0.065884, 0.065986, 99.844730
3.622500, 0.065885, 0.065986, 99.846343
3.625000, 0.065886, 0.065986, 99.848095
3.627500, 0.065887, 0.065986, 99.849926
3.630000, 0.065888, 0.065986, 99.851791
3.632500, 0.065890, 0.065986, 99.853638
3.635000, 0.065891, 0.065986, 99.855413
3.637500, 0.065892, 0.065986, 99.857085
3.640000, 0.065893, 0.065986, 99.858628
3.642500, 0.065894, 0.065986, 99.860017
3.645000, 0.065895, 0.065986, 99.861230
3.647500, 0.065895, 0.065986, 99.862250
3.650000, 0.065896, 0.065986, 99.863056
3.652500, 0.065896, 0.065986, 99.863640
3.655000, 0.065897, 0.065986, 99.864012
3.657500, 0.065897, 0.065986, 99.864229
3.660000, 0.065897, 0.065986, 99.864289
3.662500, 0.065897, 0.065986, 99.864196
3.665000, 0.065897, 0.065986, 99.864051
3.667500, 0.065896, 0.065986, 99.863899
3.670000, 0.065896, 0.065986, 99.863705
3.672500, 0.065896, 0.065986, 99.863544
3.675000, 0.065896, 0.065986, 99.863405
3.677500, 0.065896, 0.065986, 99.863267
3.680000, 0.065896, 0.065986, 99.863107
3.682500, 0.065896, 0.065986, 99.862902
3.685000, 0.065896, 0.065986, 99.862701
3.687500, 0.065896, 0.065986, 99.862572
3.690000, 0.065896, 0.065986, 99.862493
3.692500, 0.065895, 0.065986, 99.862439
3.695000, 0.065895, 0.065986, 99.862400
3.697500, 0.065895, 0.065986, 99.862360
3.700000, 0.065895, 0.065986, 99.862304
3.702500, 0.065895, 0.065986, 99.862210
3.705000, 0.065895, 0.065986, 99.862024
3.707500, 0.065895, 0.065986, 99.861751
3.710000, 0.065895, 0.065986, 99.861334
3.712500, 0.065894, 0.065986, 99.860787
3.715000, 0.065894, 0.065986, 99.860115
3.717500, 0.065893, 0.065986, 99.859308
3.720000, 0.065893, 0.065986, 99.858365
3.722500, 0.065892, 0.065986, 99.857282
3.725000, 0.065891, 0.065986, 99.856027
3.727500, 0.065890, 0.065986, 99.854575
3.730000, 0.065889, 0.065986, 99.852995
3.732500, 0.065888, 0.065986, 99.851372
3.735000, 0.065887, 0.065986, 99.849707
3.737500, 0.065886, 0.065986, 99.848002
3.740000, 0.065885, 0.065986, 99.846264
3.742500, 0.065884, 0.065986, 99.844506
3.745000, 0.065882, 0.065986, 99.842702
3.747500, 0.065881, 0.065986, 99.840836
3.750000, 0.065880, 0.065986, 99.838906
3.752500, 0.065879, 0.065986, 99.836990
3.755000, 0.065878, 0.065986, 99.835212
3.757500, 0.065876, 0.065986, 99.833594
3.760000, 0.065875, 0.065986, 99.832133
3.762500, 0.065875, 0.065986, 99.830793
3.765000, 0.065874, 0.065986, 99.829588
3.767500, 0.065873, 0.065986, 99.828575
3.770000, 0.065873, 0.065986, 99.827747
3.772500, 0.065872, 0.065986, 99.827086
3.775000, 0.065872, 0.065986, 99.826588
3.777500, 0.065872, 0.065986, 99.826309
3.780000, 0.065872, 0.065986, 99.826251
3.782500, 0.065872, 0.065986, 99.826368
3.785000, 0.065872, 0.065986, 99.826616
3.787500, 0.065872, 0.065986, 99.826950
3.790000, 0.065872, 0.065986, 99.827362
3.792500, 0.065873, 0.065986, 99.827934
3.795000, 0.065873, 0.065986, 99.828727
3.797500, 0.065874, 0.065986, 99.829674
3.800000, 0.065875, 0.065986, 99.830724
3.802500, 0.065875, 0.065986, 99.831844
3.805000, 0.065876, 0.065986, 99.833105
3.807500, 0.065877, 0.065986, 99.834568
3.810000, 0.065878, 0.065986, 99.836230
3.812500, 0.065879, 0.065986, 99.838049
3.815000, 0.065881, 0.065986, 99.839938
3.817500, 0.065882, 0.065986, 99.841846
3.820000, 0.065883, 0.065986, 99.843737
3.822500, 0.065884, 0.065986, 99.845577
3.825000, 0.065886, 0.065986, 99.847337
3.827500, 0.065887, 0.065986, 99.848994
3.830000, 0.065888, 0.065986, 99.850526
3.832500, 0.065889, 0.065986, 99.851914
3.835000, 0.065889, 0.065986, 99.853162
3.837500, 0.065890, 0.065986, 99.854284
3.840000, 0.065891, 0.065986, 99.855278
3.842500, 0.065891, 0.065986, 99.856200
3.845000, 0.065892, 0.065986, 99.857075
3.847500, 0.065893, 0.065986, 99.857943
3.850000, 0.065893, 0.065986, 99.858812
3.852500, 0.065894, 0.065986, 99.859665
3.855000, 0.065894, 0.065986, 99.860482
3.857500, 0.065895, 0.065986, 99.861235
3.860000, 0.065895, 0.065986, 99.861919
3.862500, 0.065896, 0.065986, 99.862574
3.865000, 0.065896, 0.065986, 99.863202
3.867500, 0.065896, 0.065986, 99.863784
3.870000, 0.065897, 0.065986, 99.864291
3.872500, 0.065897, 0.065986, 99.864709
3.875000, 0.065897, 0.065986, 99.865050
3.877500, 0.065897, 0.065986, 99.865399
3.880000, 0.065898, 0.065986, 99.865743
3.882500, 0.065898, 0.065986, 99.866051
3.885000, 0.065898, 0.065986, 99.866306
3.887500, 0.065898, 0.065986, 99.866486
3.890000, 0.065898, 0.065986, 99.866563
3.892500, 0.065898, 0.065986, 99.866529
3.895000, 0.065898, 0.065986, 99.866382
3.897500, 0.065898, 0.065986, 99.866130
3.900000, 0.065898, 0.065986, 99.865770
3.902500, 0.065897, 0.065986, 99.865285
3.905000, 0.065897, 0.065986, 99.864662
3.907500, 0.065896, 0.065986, 99.863877
3.910000, 0.065896, 0.065986, 99.862914
3.912500, 0.065895, 0.065986, 99.861768
3.915000, 0.065894, 0.065986, 99.860444
3.917500, 0.065893, 0.065986, 99.858943
3.920000, 0.065892, 0.065986, 99.857291
3.922500, 0.065891, 0.065986, 99.855567
3.925000, 0.065890, 0.065986, 99.853823
3.927500, 0.065889, 0.065986, 99.852064
3.930000, 0.065887, 0.065986, 99.850321
3.932500, 0.065886, 0.065986, 99.848646
3.935000, 0.065885, 0.065986, 99.847105
3.937500, 0.065884, 0.065986, 99.845716
3.940000, 0.065884, 0.065986, 99.844466
3.942500, 0.065883, 0.065986, 99.843337
3.945000, 0.065882, 0.065986, 99.842319
3.947500, 0.065882, 0.065986, 99.841398
3.950000, 0.065881, 0.065986, 99.840597
3.952500, 0.065881, 0.065986, 99.839954
3.955000, 0.065880, 0.065986, 99.839477
3.957500, 0.065880, 0.065986, 99.839139
3.960000, 0.065880, 0.065986, 99.838919
3.962500, 0.065880, 0.065986, 99.838804
3.965000, 0.065880, 0.065986, 99.838778
3.967500, 0.065880, 0.065986, 99.838813
3.970000, 0.065880, 0.065986, 99.838873
3.972500, 0.065880, 0.065986, 99.838937
3.975000, 0.065880, 0.065986, 99.838989
3.977500, 0.065880, 0.065986, 99.839033
3.980000, 0.065880, 0.065986, 99.839033
3.982500, 0.065880, 0.065986, 99.838979
3.985000, 0.065880, 0.065986, 99.838922
3.987500, 0.065880, 0.065986, 99.838965
3.990000, 0.065880, 0.065986, 99.839090
3.992500, 0.065880, 0.065986, 99.839280
3.995000, 0.065880, 0.065986, 99.839511
3.997500, 0.065881, 0.065986, 99.839764
4.000000, 0.065881, 0.065986, 99.840076
4.002500, 0.065881, 0.065986, 99.840533
