Time, V_g(t), V_g(0), V_g(t)/V_g(0)
0.002500, 0.069554, 0.069554, 100.000000
0.005000, 0.069550, 0.069554, 99.994476
0.007500, 0.069550, 0.069554, 99.993943
0.010000, 0.069550, 0.069554, 99.993709
0.012500, 0.069550, 0.069554, 99.993530
0.015000, 0.069550, 0.069554, 99.993383
0.017500, 0.069550, 0.069554, 99.993259
0.020000, 0.069550, 0.069554, 99.993109
0.022500, 0.069549, 0.069554, 99.992956
0.025000, 0.069549, 0.069554, 99.992773
0.027500, 0.069549, 0.069554, 99.992593
0.030000, 0.069549, 0.069554, 99.992408
0.032500, 0.069549, 0.069554, 99.992215
0.035000, 0.069549, 0.069554, 99.992009
0.037500, 0.069549, 0.069554, 99.991795
0.040000, 0.069548, 0.069554, 99.991562
0.042500, 0.069548, 0.069554, 99.991338
0.045000, 0.069548, 0.069554, 99.991087
0.047500, 0.069548, 0.069554, 99.990897
0.050000, 0.069548, 0.069554, 99.990630
0.052500, 0.069548, 0.069554, 99.990391
0.055000, 0.069547, 0.069554, 99.990154
0.057500, 0.069547, 0.069554, 99.989900
0.060000, 0.069547, 0.069554, 99.989620
0.062500, 0.069547, 0.069554, 99.989347
0.065000, 0.069547, 0.069554, 99.989081
0.067500, 0.069547, 0.069554, 99.988806
0.070000, 0.069546, 0.069554, 99.988533
0.072500, 0.069546, 0.069554, 99.988255
0.075000, 0.069546, 0.069554, 99.987977
0.077500, 0.069546, 0.069554, 99.987697
0.080000, 0.069546, 0.069554, 99.987415
0.082500, 0.069545, 0.069554, 99.987130
0.085000, 0.069545, 0.069554, 99.986842
0.087500, 0.069545, 0.069554, 99.986552
0.090000, 0.069545, 0.069554, 99.986260
0.092500, 0.069545, 0.069554, 99.985966
0.095000, 0.069544, 0.069554, 99.985671
0.097500, 0.069544, 0.069554, 99.985376
0.100000, 0.069544, 0.069554, 99.985081
0.102500, 0.069544, 0.069554, 99.984786
0.105000, 0.069544, 0.069554, 99.984490
0.107500, 0.069543, 0.069554, 99.984194
0.110000, 0.069543, 0.069554, 99.983906
0.112500, 0.069543, 0.069554, 99.983617
0.115000, 0.069543, 0.069554, 99.983327
0.117500, 0.069543, 0.069554, 99.983037
0.120000, 0.069542, 0.069554, 99.982747
0.122500, 0.069542, 0.069554, 99.982459
0.125000, 0.069542, 0.069554, 99.982174
0.127500, 0.069542, 0.069554, 99.981891
0.130000, 0.069542, 0.069554, 99.981610
0.132500, 0.069541, 0.069554, 99.981330
0.135000, 0.069541, 0.069554, 99.981050
0.137500, 0.069541, 0.069554, 99.980774
0.140000, 0.069541, 0.069554, 99.980499
0.142500, 0.069541, 0.069554, 99.980229
0.145000, 0.069540, 0.069554, 99.979962
0.147500, 0.069540, 0.069554, 99.979698
0.150000, 0.069540, 0.069554, 99.979436
0.152500, 0.069540, 0.069554, 99.979178
0.155000, 0.069540, 0.069554, 99.978923
0.157500, 0.069539, 0.069554, 99.978673
0.160000, 0.069539, 0.069554, 99.978427
0.162500, 0.069539, 0.069554, 99.978187
0.165000, 0.069539, 0.069554, 99.977953
0.167500, 0.069539, 0.069554, 99.977727
0.170000, 0.069539, 0.069554, 99.977507
0.172500, 0.069539, 0.069554, 99.977294
0.175000, 0.069538, 0.069554, 99.977088
0.177500, 0.069538, 0.069554, 99.976886
0.180000, 0.069538, 0.069554, 99.976690
0.182500, 0.069538, 0.069554, 99.976498
0.185000, 0.069538, 0.069554, 99.976312
0.187500, 0.069538, 0.069554, 99.976132
0.190000, 0.069538, 0.069554, 99.975958
0.192500, 0.069537, 0.069554, 99.975790
0.195000, 0.069537, 0.069554, 99.975628
0.197500, 0.069537, 0.069554, 99.975472
0.200000, 0.069537, 0.069554, 99.975321
0.202500, 0.069537, 0.069554, 99.975175
0.205000, 0.069537, 0.069554, 99.975031
0.207500, 0.069537, 0.069554, 99.974892
0.210000, 0.069537, 0.069554, 99.974756
0.212500, 0.069537, 0.069554, 99.974621
0.215000, 0.069537, 0.069554, 99.974488
0.217500, 0.069536, 0.069554, 99.974354
0.220000, 0.069536, 0.069554, 99.974220
0.222500, 0.069536, 0.069554, 99.974084
0.225000, 0.069536, 0.069554, 99.973948
0.227500, 0.069536, 0.069554, 99.973812
0.230000, 0.069536, 0.069554, 99.973677
0.232500, 0.069536, 0.069554, 99.973542
0.235000, 0.069536, 0.069554, 99.973409
0.237500, 0.069536, 0.069554, 99.973277
0.240000, 0.069536, 0.069554, 99.973147
0.242500, 0.069536, 0.069554, 99.973015
0.245000, 0.069535, 0.069554, 99.972883
0.247500, 0.069535, 0.069554, 99.972750
0.250000, 0.069535, 0.069554, 99.972618
0.252500, 0.069535, 0.069554, 99.972486
0.255000, 0.069535, 0.069554, 99.972356
0.257500, 0.069535, 0.069554, 99.972229
0.260000, 0.069535, 0.069554, 99.972102
0.262500, 0.069535, 0.069554, 99.971979
0.265000, 0.069535, 0.069554, 99.971856
0.267500, 0.069535, 0.069554, 99.971732
0.270000, 0.069535, 0.069554, 99.971605
0.272500, 0.069534, 0.069554, 99.971515
0.275000, 0.069534, 0.069554, 99.971400
0.277500, 0.069534, 0.069554, 99.971257
0.280000, 0.069534, 0.069554, 99.971107
0.282500, 0.069534, 0.069554, 99.970952
0.285000, 0.069534, 0.069554, 99.970791
0.287500, 0.069534, 0.069554, 99.970626
0.290000, 0.069534, 0.069554, 99.970457
0.292500, 0.069534, 0.069554, 99.970284
0.295000, 0.069534, 0.069554, 99.970109
0.297500, 0.069533, 0.069554, 99.969932
0.300000, 0.069533, 0.069554, 99.969743
0.302500, 0.069533, 0.069554, 99.969560
0.305000, 0.069533, 0.069554, 99.969379
0.307500, 0.069533, 0.069554, 99.969199
0.310000, 0.069533, 0.069554, 99.969019
0.312500, 0.069533, 0.069554, 99.968842
0.315000, 0.069533, 0.069554, 99.968665
0.317500, 0.069532, 0.069554, 99.968492
0.320000, 0.069532, 0.069554, 99.968320
0.322500, 0.069532, 0.069554, 99.968150
0.325000, 0.069532, 0.069554, 99.967984
0.327500, 0.069532, 0.069554, 99.967823
0.330000, 0.069532, 0.069554, 99.967666
0.332500, 0.069532, 0.069554, 99.967516
0.335000, 0.069532, 0.069554, 99.967368
0.337500, 0.069532, 0.069554, 99.967223
0.340000, 0.069531, 0.069554, 99.967076
0.342500, 0.069531, 0.069554, 99.966925
0.345000, 0.069531, 0.069554, 99.966765
0.347500, 0.069531, 0.069554, 99.966597
0.350000, 0.069531, 0.069554, 99.966421
0.352500, 0.069531, 0.069554, 99.966237
0.355000, 0.069531, 0.069554, 99.966046
0.357500, 0.069531, 0.069554, 99.965848
0.360000, 0.069530, 0.069554, 99.965644
0.362500, 0.069530, 0.069554, 99.965432
0.365000, 0.069530, 0.069554, 99.965215
0.367500, 0.069530, 0.069554, 99.964992
0.370000, 0.069530, 0.069554, 99.964763
0.372500, 0.069530, 0.069554, 99.964529
0.375000, 0.069529, 0.069554, 99.964289
0.377500, 0.069529, 0.069554, 99.964046
0.380000, 0.069529, 0.069554, 99.963799
0.382500, 0.069529, 0.069554, 99.963549
0.385000, 0.069529, 0.069554, 99.963297
0.387500, 0.069529, 0.069554, 99.963045
0.390000, 0.069528, 0.069554, 99.962792
0.392500, 0.069528, 0.069554, 99.962543
0.395000, 0.069528, 0.069554, 99.962294
0.397500, 0.069528, 0.069554, 99.962049
0.400000, 0.069528, 0.069554, 99.961808
0.402500, 0.069528, 0.069554, 99.961568
0.405000, 0.069527, 0.069554, 99.961329
0.407500, 0.069527, 0.069554, 99.961087
0.410000, 0.069527, 0.069554, 99.960842
0.412500, 0.069527, 0.069554, 99.960593
0.415000, 0.069527, 0.069554, 99.960342
0.417500, 0.069527, 0.069554, 99.960084
0.420000, 0.069526, 0.069554, 99.959819
0.422500, 0.069526, 0.069554, 99.959549
0.425000, 0.069526, 0.069554, 99.959268
0.427500, 0.069526, 0.069554, 99.958979
0.430000, 0.069526, 0.069554, 99.958679
0.432500, 0.069525, 0.069554, 99.958369
0.435000, 0.069525, 0.069554, 99.958048
0.437500, 0.069525, 0.069554, 99.957718
0.440000, 0.069525, 0.069554, 99.957378
0.442500, 0.069524, 0.069554, 99.957031
0.445000, 0.069524, 0.069554, 99.956674
0.447500, 0.069524, 0.069554, 99.956312
0.450000, 0.069524, 0.069554, 99.955942
0.452500, 0.069523, 0.069554, 99.955566
0.455000, 0.069523, 0.069554, 99.955183
0.457500, 0.069523, 0.069554, 99.954794
0.460000, 0.069523, 0.069554, 99.954398
0.462500, 0.069522, 0.069554, 99.953999
0.465000, 0.069522, 0.069554, 99.953595
0.467500, 0.069522, 0.069554, 99.953187
0.470000, 0.069521, 0.069554, 99.952775
0.472500, 0.069521, 0.069554, 99.952359
0.475000, 0.069521, 0.069554, 99.951942
0.477500, 0.069521, 0.069554, 99.951520
0.480000, 0.069520, 0.069554, 99.951094
0.482500, 0.069520, 0.069554, 99.950664
0.485000, 0.069520, 0.069554, 99.950230
0.487500, 0.069519, 0.069554, 99.949792
0.490000, 0.069519, 0.069554, 99.949348
0.492500, 0.069519, 0.069554, 99.948902
0.495000, 0.069518, 0.069554, 99.948453
0.497500, 0.069518, 0.069554, 99.948004
0.500000, 0.069518, 0.069554, 99.947554
0.502500, 0.069518, 0.069554, 99.947101
0.505000, 0.069517, 0.069554, 99.946646
0.507500, 0.069517, 0.069554, 99.946193
0.510000, 0.069517, 0.069554, 99.945741
0.512500, 0.069516, 0.069554, 99.945295
0.515000, 0.069516, 0.069554, 99.944855
0.517500, 0.069516, 0.069554, 99.944422
0.520000, 0.069515, 0.069554, 99.943994
0.522500, 0.069515, 0.069554, 99.943574
0.525000, 0.069515, 0.069554, 99.943160
0.527500, 0.069514, 0.069554, 99.942751
0.530000, 0.069514, 0.069554, 99.942352
0.532500, 0.069514, 0.069554, 99.941959
0.535000, 0.069514, 0.069554, 99.941574
0.537500, 0.069513, 0.069554, 99.941194
0.540000, 0.069513, 0.069554, 99.940822
0.542500, 0.069513, 0.069554, 99.940454
0.545000, 0.069513, 0.069554, 99.940091
0.547500, 0.069512, 0.069554, 99.939733
0.550000, 0.069512, 0.069554, 99.939377
0.552500, 0.069512, 0.069554, 99.939023
0.555000, 0.069512, 0.069554, 99.938673
0.557500, 0.069511, 0.069554, 99.938326
0.560000, 0.069511, 0.069554, 99.937980
0.562500, 0.069511, 0.069554, 99.937638
0.565000, 0.069511, 0.069554, 99.937294
0.567500, 0.069510, 0.069554, 99.936957
0.570000, 0.069510, 0.069554, 99.936626
0.572500, 0.069510, 0.069554, 99.936302
0.575000, 0.069510, 0.069554, 99.935983
0.577500, 0.069510, 0.069554, 99.935669
0.580000, 0.069509, 0.069554, 99.935360
0.582500, 0.069509, 0.069554, 99.935055
0.585000, 0.069509, 0.069554, 99.934760
0.587500, 0.069509, 0.069554, 99.934469
0.590000, 0.069509, 0.069554, 99.934182
0.592500, 0.069508, 0.069554, 99.933899
0.595000, 0.069508, 0.069554, 99.933620
0.597500, 0.069508, 0.069554, 99.933338
0.600000, 0.069508, 0.069554, 99.933055
0.602500, 0.069508, 0.069554, 99.932775
0.605000, 0.069507, 0.069554, 99.932489
0.607500, 0.069507, 0.069554, 99.932200
0.610000, 0.069507, 0.069554, 99.931904
0.612500, 0.069507, 0.069554, 99.931601
0.615000, 0.069507, 0.069554, 99.931288
0.617500, 0.069506, 0.069554, 99.930962
0.620000, 0.069506, 0.069554, 99.930624
0.622500, 0.069506, 0.069554, 99.930271
0.625000, 0.069506, 0.069554, 99.929901
0.627500, 0.069505, 0.069554, 99.929515
0.630000, 0.069505, 0.069554, 99.929116
0.632500, 0.069505, 0.069554, 99.928708
0.635000, 0.069504, 0.069554, 99.928287
0.637500, 0.069504, 0.069554, 99.927862
0.640000, 0.069504, 0.069554, 99.927431
0.642500, 0.069504, 0.069554, 99.926990
0.645000, 0.069503, 0.069554, 99.926538
0.647500, 0.069503, 0.069554, 99.926079
0.650000, 0.069503, 0.069554, 99.925614
0.652500, 0.069502, 0.069554, 99.925145
0.655000, 0.069502, 0.069554, 99.924671
0.657500, 0.069502, 0.069554, 99.924191
0.660000, 0.069501, 0.069554, 99.923707
0.662500, 0.069501, 0.069554, 99.923220
0.665000, 0.069501, 0.069554, 99.922730
0.667500, 0.069500, 0.069554, 99.922234
0.670000, 0.069500, 0.069554, 99.921729
0.672500, 0.069500, 0.069554, 99.921220
0.675000, 0.069499, 0.069554, 99.920702
0.677500, 0.069499, 0.069554, 99.920187
0.680000, 0.069498, 0.069554, 99.919675
0.682500, 0.069498, 0.069554, 99.919170
0.685000, 0.069498, 0.069554, 99.918668
0.687500, 0.069497, 0.069554, 99.918178
0.690000, 0.069497, 0.069554, 99.917707
0.692500, 0.069497, 0.069554, 99.917263
0.695000, 0.069496, 0.069554, 99.916844
0.697500, 0.069496, 0.069554, 99.916445
0.700000, 0.069496, 0.069554, 99.916065
0.702500, 0.069496, 0.069554, 99.915700
0.705000, 0.069495, 0.069554, 99.915349
0.707500, 0.069495, 0.069554, 99.915010
0.710000, 0.069495, 0.069554, 99.914684
0.712500, 0.069495, 0.069554, 99.914371
0.715000, 0.069495, 0.069554, 99.914067
0.717500, 0.069494, 0.069554, 99.913773
0.720000, 0.069494, 0.069554, 99.913484
0.722500, 0.069494, 0.069554, 99.913203
0.725000, 0.069494, 0.069554, 99.912922
0.727500, 0.069494, 0.069554, 99.912643
0.730000, 0.069493, 0.069554, 99.912364
0.732500, 0.069493, 0.069554, 99.912090
0.735000, 0.069493, 0.069554, 99.911817
0.737500, 0.069493, 0.069554, 99.911564
0.740000, 0.069493, 0.069554, 99.911294
0.742500, 0.069492, 0.069554, 99.911029
0.745000, 0.069492, 0.069554, 99.910773
0.747500, 0.069492, 0.069554, 99.910528
0.750000, 0.069492, 0.069554, 99.910287
0.752500, 0.069492, 0.069554, 99.910051
0.755000, 0.069492, 0.069554, 99.909819
0.757500, 0.069491, 0.069554, 99.909588
0.760000, 0.069491, 0.069554, 99.909367
0.762500, 0.069491, 0.069554, 99.909156
0.765000, 0.069491, 0.069554, 99.908954
0.767500, 0.069491, 0.069554, 99.908757
0.770000, 0.069491, 0.069554, 99.908563
0.772500, 0.069491, 0.069554, 99.908372
0.775000, 0.069490, 0.069554, 99.908177
0.777500, 0.069490, 0.069554, 99.907980
0.780000, 0.069490, 0.069554, 99.907775
0.782500, 0.069490, 0.069554, 99.907560
0.785000, 0.069490, 0.069554, 99.907333
0.787500, 0.069490, 0.069554, 99.907090
0.790000, 0.069490, 0.069554, 99.906828
0.792500, 0.069489, 0.069554, 99.906543
0.795000, 0.069489, 0.069554, 99.906228
0.797500, 0.069489, 0.069554, 99.905909
0.800000, 0.069489, 0.069554, 99.905572
0.802500, 0.069488, 0.069554, 99.905219
0.805000, 0.069488, 0.069554, 99.904857
0.807500, 0.069488, 0.069554, 99.904480
0.810000, 0.069488, 0.069554, 99.904095
0.812500, 0.069487, 0.069554, 99.903702
0.815000, 0.069487, 0.069554, 99.903302
0.817500, 0.069487, 0.069554, 99.902890
0.820000, 0.069486, 0.069554, 99.902466
0.822500, 0.069486, 0.069554, 99.902032
0.825000, 0.069486, 0.069554, 99.901596
0.827500, 0.069486, 0.069554, 99.901153
0.830000, 0.069485, 0.069554, 99.900715
0.832500, 0.069485, 0.069554, 99.900272
0.835000, 0.069485, 0.069554, 99.899824
0.837500, 0.069484, 0.069554, 99.899373
0.840000, 0.069484, 0.069554, 99.898913
0.842500, 0.069484, 0.069554, 99.898444
0.845000, 0.069483, 0.069554, 99.897967
0.847500, 0.069483, 0.069554, 99.897491
0.850000, 0.069483, 0.069554, 99.897031
0.852500, 0.069482, 0.069554, 99.896579
0.855000, 0.069482, 0.069554, 99.896131
0.857500, 0.069482, 0.069554, 99.895687
0.860000, 0.069481, 0.069554, 99.895249
0.862500, 0.069481, 0.069554, 99.894835
0.865000, 0.069481, 0.069554, 99.894452
0.867500, 0.069481, 0.069554, 99.894099
0.870000, 0.069480, 0.069554, 99.893771
0.872500, 0.069480, 0.069554, 99.893467
0.875000, 0.069480, 0.069554, 99.893185
0.877500, 0.069480, 0.069554, 99.892923
0.880000, 0.069480, 0.069554, 99.892682
0.882500, 0.069480, 0.069554, 99.892460
0.885000, 0.069479, 0.069554, 99.892252
0.887500, 0.069479, 0.069554, 99.892044
0.890000, 0.069479, 0.069554, 99.891857
0.892500, 0.069479, 0.069554, 99.891676
0.895000, 0.069479, 0.069554, 99.891499
0.897500, 0.069479, 0.069554, 99.891322
0.900000, 0.069479, 0.069554, 99.891145
0.902500, 0.069478, 0.069554, 99.890973
0.905000, 0.069478, 0.069554, 99.890806
0.907500, 0.069478, 0.069554, 99.890644
0.910000, 0.069478, 0.069554, 99.890488
0.912500, 0.069478, 0.069554, 99.890339
0.915000, 0.069478, 0.069554, 99.890199
0.917500, 0.069478, 0.069554, 99.890069
0.920000, 0.069478, 0.069554, 99.889947
0.922500, 0.069478, 0.069554, 99.889829
0.925000, 0.069478, 0.069554, 99.889713
0.927500, 0.069478, 0.069554, 99.889596
0.930000, 0.069477, 0.069554, 99.889493
0.932500, 0.069477, 0.069554, 99.889406
0.935000, 0.069477, 0.069554, 99.889330
0.937500, 0.069477, 0.069554, 99.889260
0.940000, 0.069477, 0.069554, 99.889196
0.942500, 0.069477, 0.069554, 99.889129
0.945000, 0.069477, 0.069554, 99.889059
0.947500, 0.069477, 0.069554, 99.888981
0.950000, 0.069477, 0.069554, 99.888895
0.952500, 0.069477, 0.069554, 99.888794
0.955000, 0.069477, 0.069554, 99.888677
0.957500, 0.069477, 0.069554, 99.888541
0.960000, 0.069477, 0.069554, 99.888382
0.962500, 0.069477, 0.069554, 99.888201
0.965000, 0.069476, 0.069554, 99.887991
0.967500, 0.069476, 0.069554, 99.887753
0.970000, 0.069476, 0.069554, 99.887489
0.972500, 0.069476, 0.069554, 99.887205
0.975000, 0.069476, 0.069554, 99.886908
0.977500, 0.069475, 0.069554, 99.886593
0.980000, 0.069475, 0.069554, 99.886263
0.982500, 0.069475, 0.069554, 99.885922
0.985000, 0.069475, 0.069554, 99.885570
0.987500, 0.069474, 0.069554, 99.885206
0.990000, 0.069474, 0.069554, 99.884825
0.992500, 0.069474, 0.069554, 99.884431
0.995000, 0.069474, 0.069554, 99.884058
0.997500, 0.069473, 0.069554, 99.883673
1.000000, 0.069473, 0.069554, 99.883288
1.002500, 0.069473, 0.069554, 99.882875
1.005000, 0.069473, 0.069554, 99.882484
1.007500, 0.069472, 0.069554, 99.882090
1.010000, 0.069472, 0.069554, 99.881695
1.012500, 0.069472, 0.069554, 99.881297
1.015000, 0.069471, 0.069554, 99.880901
1.017500, 0.069471, 0.069554, 99.880509
1.020000, 0.069471, 0.069554, 99.880127
1.022500, 0.069471, 0.069554, 99.879755
1.025000, 0.069470, 0.069554, 99.879392
1.027500, 0.069470, 0.069554, 99.879035
1.030000, 0.069470, 0.069554, 99.878690
1.032500, 0.069470, 0.069554, 99.878377
1.035000, 0.069470, 0.069554, 99.878100
1.037500, 0.069469, 0.069554, 99.877855
1.040000, 0.069469, 0.069554, 99.877640
1.042500, 0.069469, 0.069554, 99.877450
1.045000, 0.069469, 0.069554, 99.877285
1.047500, 0.069469, 0.069554, 99.877146
1.050000, 0.069469, 0.069554, 99.877027
1.052500, 0.069469, 0.069554, 99.876925
1.055000, 0.069469, 0.069554, 99.876835
1.057500, 0.069469, 0.069554, 99.876752
1.060000, 0.069469, 0.069554, 99.876681
1.062500, 0.069468, 0.069554, 99.876616
1.065000, 0.069468, 0.069554, 99.876556
1.067500, 0.069468, 0.069554, 99.876496
1.070000, 0.069468, 0.069554, 99.876439
1.072500, 0.069468, 0.069554, 99.876387
1.075000, 0.069468, 0.069554, 99.876340
1.077500, 0.069468, 0.069554, 99.876303
1.080000, 0.069468, 0.069554, 99.876279
1.082500, 0.069468, 0.069554, 99.876264
1.085000, 0.069468, 0.069554, 99.876257
1.087500, 0.069468, 0.069554, 99.876251
1.090000, 0.069468, 0.069554, 99.876270
1.092500, 0.069468, 0.069554, 99.876256
1.095000, 0.069468, 0.069554, 99.876252
1.097500, 0.069468, 0.069554, 99.876263
1.100000, 0.069468, 0.069554, 99.876285
1.102500, 0.069468, 0.069554, 99.876314
1.105000, 0.069468, 0.069554, 99.876349
1.107500, 0.069468, 0.069554, 99.876405
1.110000, 0.069468, 0.069554, 99.876436
1.112500, 0.069468, 0.069554, 99.876466
1.115000, 0.069468, 0.069554, 99.876482
1.117500, 0.069468, 0.069554, 99.876483
1.120000, 0.069468, 0.069554, 99.876467
1.122500, 0.069468, 0.069554, 99.876436
1.125000, 0.069468, 0.069554, 99.876391
1.127500, 0.069468, 0.069554, 99.876327
1.130000, 0.069468, 0.069554, 99.876239
1.132500, 0.069468, 0.069554, 99.876137
1.135000, 0.069468, 0.069554, 99.875994
1.137500, 0.069468, 0.069554, 99.875815
1.140000, 0.069468, 0.069554, 99.875610
1.142500, 0.069468, 0.069554, 99.875385
1.145000, 0.069467, 0.069554, 99.875144
1.147500, 0.069467, 0.069554, 99.874882
1.150000, 0.069467, 0.069554, 99.874598
1.152500, 0.069467, 0.069554, 99.874299
1.155000, 0.069467, 0.069554, 99.873990
1.157500, 0.069466, 0.069554, 99.873660
1.160000, 0.069466, 0.069554, 99.873322
1.162500, 0.069466, 0.069554, 99.872980
1.165000, 0.069466, 0.069554, 99.872638
1.167500, 0.069465, 0.069554, 99.872302
1.170000, 0.069465, 0.069554, 99.871972
1.172500, 0.069465, 0.069554, 99.871646
1.175000, 0.069465, 0.069554, 99.871321
1.177500, 0.069465, 0.069554, 99.870987
1.180000, 0.069464, 0.069554, 99.870666
1.182500, 0.069464, 0.069554, 99.870349
1.185000, 0.069464, 0.069554, 99.870036
1.187500, 0.069464, 0.069554, 99.869728
1.190000, 0.069463, 0.069554, 99.869426
1.192500, 0.069463, 0.069554, 99.869136
1.195000, 0.069463, 0.069554, 99.868855
1.197500, 0.069463, 0.069554, 99.868580
1.200000, 0.069463, 0.069554, 99.868320
1.202500, 0.069463, 0.069554, 99.868083
1.205000, 0.069462, 0.069554, 99.867882
1.207500, 0.069462, 0.069554, 99.867716
1.210000, 0.069462, 0.069554, 99.867579
1.212500, 0.069462, 0.069554, 99.867469
1.215000, 0.069462, 0.069554, 99.867389
1.217500, 0.069462, 0.069554, 99.867336
1.220000, 0.069462, 0.069554, 99.867306
1.222500, 0.069462, 0.069554, 99.867293
1.225000, 0.069462, 0.069554, 99.867294
1.227500, 0.069462, 0.069554, 99.867304
1.230000, 0.069462, 0.069554, 99.867318
1.232500, 0.069462, 0.069554, 99.867338
1.235000, 0.069462, 0.069554, 99.867365
1.237500, 0.069462, 0.069554, 99.867394
1.240000, 0.069462, 0.069554, 99.867421
1.242500, 0.069462, 0.069554, 99.867448
1.245000, 0.069462, 0.069554, 99.867485
1.247500, 0.069462, 0.069554, 99.867537
1.250000, 0.069462, 0.069554, 99.867597
1.252500, 0.069462, 0.069554, 99.867662
1.255000, 0.069462, 0.069554, 99.867732
1.257500, 0.069462, 0.069554, 99.867808
1.260000, 0.069462, 0.069554, 99.867889
1.262500, 0.069462, 0.069554, 99.867971
1.265000, 0.069463, 0.069554, 99.868048
1.267500, 0.069463, 0.069554, 99.868119
1.270000, 0.069463, 0.069554, 99.868190
1.272500, 0.069463, 0.069554, 99.868266
1.275000, 0.069463, 0.069554, 99.868347
1.277500, 0.069463, 0.069554, 99.868429
1.280000, 0.069463, 0.069554, 99.868510
1.282500, 0.069463, 0.069554, 99.868584
1.285000, 0.069463, 0.069554, 99.868649
1.287500, 0.069463, 0.069554, 99.868700
1.290000, 0.069463, 0.069554, 99.868738
1.292500, 0.069463, 0.069554, 99.868757
1.295000, 0.069463, 0.069554, 99.868759
1.297500, 0.069463, 0.069554, 99.868738
1.300000, 0.069463, 0.069554, 99.868692
1.302500, 0.069463, 0.069554, 99.868618
1.305000, 0.069463, 0.069554, 99.868512
1.307500, 0.069463, 0.069554, 99.868375
1.310000, 0.069463, 0.069554, 99.868205
1.312500, 0.069463, 0.069554, 99.868014
1.315000, 0.069462, 0.069554, 99.867807
1.317500, 0.069462, 0.069554, 99.867581
1.320000, 0.069462, 0.069554, 99.867334
1.322500, 0.069462, 0.069554, 99.867064
1.325000, 0.069462, 0.069554, 99.866777
1.327500, 0.069461, 0.069554, 99.866483
1.330000, 0.069461, 0.069554, 99.866188
1.332500, 0.069461, 0.069554, 99.865892
1.335000, 0.069461, 0.069554, 99.865596
1.337500, 0.069461, 0.069554, 99.865302
1.340000, 0.069460, 0.069554, 99.865018
1.342500, 0.069460, 0.069554, 99.864741
1.345000, 0.069460, 0.069554, 99.864469
1.347500, 0.069460, 0.069554, 99.864205
1.350000, 0.069460, 0.069554, 99.863949
1.352500, 0.069460, 0.069554, 99.863697
1.355000, 0.069459, 0.069554, 99.863450
1.357500, 0.069459, 0.069554, 99.863207
1.360000, 0.069459, 0.069554, 99.862969
1.362500, 0.069459, 0.069554, 99.862735
1.365000, 0.069459, 0.069554, 99.862512
1.367500, 0.069459, 0.069554, 99.862297
1.370000, 0.069458, 0.069554, 99.862094
1.372500, 0.069458, 0.069554, 99.861908
1.375000, 0.069458, 0.069554, 99.861742
1.377500, 0.069458, 0.069554, 99.861609
1.380000, 0.069458, 0.069554, 99.861507
1.382500, 0.069458, 0.069554, 99.861431
1.385000, 0.069458, 0.069554, 99.861380
1.387500, 0.069458, 0.069554, 99.861355
1.390000, 0.069458, 0.069554, 99.861351
1.392500, 0.069458, 0.069554, 99.861364
1.395000, 0.069458, 0.069554, 99.861391
1.397500, 0.069458, 0.069554, 99.861430
1.400000, 0.069458, 0.069554, 99.861480
1.402500, 0.069458, 0.069554, 99.861541
1.405000, 0.069458, 0.069554, 99.861611
1.407500, 0.069458, 0.069554, 99.861684
1.410000, 0.069458, 0.069554, 99.861755
1.412500, 0.069458, 0.069554, 99.861822
1.415000, 0.069458, 0.069554, 99.861893
1.417500, 0.069458, 0.069554, 99.861975
1.420000, 0.069458, 0.069554, 99.862067
1.422500, 0.069458, 0.069554, 99.862163
1.425000, 0.069459, 0.069554, 99.862260
1.427500, 0.069459, 0.069554, 99.862354
1.430000, 0.069459, 0.069554, 99.862448
1.432500, 0.069459, 0.069554, 99.862543
1.435000, 0.069459, 0.069554, 99.862641
1.437500, 0.069459, 0.069554, 99.862731
1.440000, 0.069459, 0.069554, 99.862834
1.442500, 0.069459, 0.069554, 99.862917
1.445000, 0.069459, 0.069554, 99.863033
1.447500, 0.069459, 0.069554, 99.863103
1.450000, 0.069459, 0.069554, 99.863205
1.452500, 0.069459, 0.069554, 99.863302
1.455000, 0.069459, 0.069554, 99.863390
1.457500, 0.069459, 0.069554, 99.863467
1.460000, 0.069459, 0.069554, 99.863532
1.462500, 0.069459, 0.069554, 99.863582
1.465000, 0.069459, 0.069554, 99.863614
1.467500, 0.069459, 0.069554, 99.863626
1.470000, 0.069459, 0.069554, 99.863615
1.472500, 0.069459, 0.069554, 99.863579
1.475000, 0.069459, 0.069554, 99.863515
1.477500, 0.069459, 0.069554, 99.863422
1.480000, 0.069459, 0.069554, 99.863298
1.482500, 0.069459, 0.069554, 99.863143
1.485000, 0.069459, 0.069554, 99.862970
1.487500, 0.069459, 0.069554, 99.862780
1.490000, 0.069459, 0.069554, 99.862576
1.492500, 0.069459, 0.069554, 99.862354
1.495000, 0.069458, 0.069554, 99.862112
1.497500, 0.069458, 0.069554, 99.861853
1.500000, 0.069458, 0.069554, 99.861593
1.502500, 0.069458, 0.069554, 99.861336
1.505000, 0.069458, 0.069554, 99.861083
1.507500, 0.069458, 0.069554, 99.860832
1.510000, 0.069457, 0.069554, 99.860582
1.512500, 0.069457, 0.069554, 99.860339
1.515000, 0.069457, 0.069554, 99.860104
1.517500, 0.069457, 0.069554, 99.859876
1.520000, 0.069457, 0.069554, 99.859659
1.522500, 0.069457, 0.069554, 99.859448
1.525000, 0.069456, 0.069554, 99.859241
1.527500, 0.069456, 0.069554, 99.859037
1.530000, 0.069456, 0.069554, 99.858837
1.532500, 0.069456, 0.069554, 99.858640
1.535000, 0.069456, 0.069554, 99.858443
1.537500, 0.069456, 0.069554, 99.858252
1.540000, 0.069456, 0.069554, 99.858068
1.542500, 0.069455, 0.069554, 99.857893
1.545000, 0.069455, 0.069554, 99.857733
1.547500, 0.069455, 0.069554, 99.857585
1.550000, 0.069455, 0.069554, 99.857459
1.552500, 0.069455, 0.069554, 99.857359
1.555000, 0.069455, 0.069554, 99.857286
1.557500, 0.069455, 0.069554, 99.857243
1.560000, 0.069455, 0.069554, 99.857231
1.562500, 0.069455, 0.069554, 99.857245
1.565000, 0.069455, 0.069554, 99.857277
1.567500, 0.069455, 0.069554, 99.857323
1.570000, 0.069455, 0.069554, 99.857380
1.572500, 0.069455, 0.069554, 99.857446
1.575000, 0.069455, 0.069554, 99.857521
1.577500, 0.069455, 0.069554, 99.857602
1.580000, 0.069455, 0.069554, 99.857687
1.582500, 0.069455, 0.069554, 99.857773
1.585000, 0.069455, 0.069554, 99.857854
1.587500, 0.069455, 0.069554, 99.857934
1.590000, 0.069456, 0.069554, 99.858024
1.592500, 0.069456, 0.069554, 99.858125
1.595000, 0.069456, 0.069554, 99.858232
1.597500, 0.069456, 0.069554, 99.858344
1.600000, 0.069456, 0.069554, 99.858455
1.602500, 0.069456, 0.069554, 99.858568
1.605000, 0.069456, 0.069554, 99.858686
1.607500, 0.069456, 0.069554, 99.858805
1.610000, 0.069456, 0.069554, 99.858921
1.612500, 0.069456, 0.069554, 99.859031
1.615000, 0.069456, 0.069554, 99.859134
1.617500, 0.069456, 0.069554, 99.859241
1.620000, 0.069456, 0.069554, 99.859353
1.622500, 0.069457, 0.069554, 99.859466
1.625000, 0.069457, 0.069554, 99.859575
1.627500, 0.069457, 0.069554, 99.859680
1.630000, 0.069457, 0.069554, 99.859777
1.632500, 0.069457, 0.069554, 99.859865
1.635000, 0.069457, 0.069554, 99.859941
1.637500, 0.069457, 0.069554, 99.860002
1.640000, 0.069457, 0.069554, 99.860044
1.642500, 0.069457, 0.069554, 99.860065
1.645000, 0.069457, 0.069554, 99.860063
1.647500, 0.069457, 0.069554, 99.860034
1.650000, 0.069457, 0.069554, 99.859978
1.652500, 0.069457, 0.069554, 99.859893
1.655000, 0.069457, 0.069554, 99.859775
1.657500, 0.069457, 0.069554, 99.859633
1.660000, 0.069457, 0.069554, 99.859474
1.662500, 0.069456, 0.069554, 99.859299
1.665000, 0.069456, 0.069554, 99.859108
1.667500, 0.069456, 0.069554, 99.858899
1.670000, 0.069456, 0.069554, 99.858670
1.672500, 0.069456, 0.069554, 99.858431
1.675000, 0.069456, 0.069554, 99.858194
1.677500, 0.069456, 0.069554, 99.857964
1.680000, 0.069455, 0.069554, 99.857736
1.682500, 0.069455, 0.069554, 99.857508
1.685000, 0.069455, 0.069554, 99.857279
1.687500, 0.069455, 0.069554, 99.857054
1.690000, 0.069455, 0.069554, 99.856837
1.692500, 0.069455, 0.069554, 99.856630
1.695000, 0.069454, 0.069554, 99.856432
1.697500, 0.069454, 0.069554, 99.856239
1.700000, 0.069454, 0.069554, 99.856047
1.702500, 0.069454, 0.069554, 99.855860
1.705000, 0.069454, 0.069554, 99.855677
1.707500, 0.069454, 0.069554, 99.855494
1.710000, 0.069454, 0.069554, 99.855309
1.712500, 0.069454, 0.069554, 99.855125
1.715000, 0.069453, 0.069554, 99.854946
1.717500, 0.069453, 0.069554, 99.854778
1.720000, 0.069453, 0.069554, 99.854626
1.722500, 0.069453, 0.069554, 99.854488
1.725000, 0.069453, 0.069554, 99.854373
1.727500, 0.069453, 0.069554, 99.854291
1.730000, 0.069453, 0.069554, 99.854237
1.732500, 0.069453, 0.069554, 99.854212
1.735000, 0.069453, 0.069554, 99.854213
1.737500, 0.069453, 0.069554, 99.854235
1.740000, 0.069453, 0.069554, 99.854275
1.742500, 0.069453, 0.069554, 99.854329
1.745000, 0.069453, 0.069554, 99.854395
1.747500, 0.069453, 0.069554, 99.854475
1.750000, 0.069453, 0.069554, 99.854565
1.752500, 0.069453, 0.069554, 99.854664
1.755000, 0.069453, 0.069554, 99.854767
1.757500, 0.069453, 0.069554, 99.854870
1.760000, 0.069453, 0.069554, 99.854971
1.762500, 0.069454, 0.069554, 99.855070
1.765000, 0.069454, 0.069554, 99.855179
1.767500, 0.069454, 0.069554, 99.855299
1.770000, 0.069454, 0.069554, 99.855427
1.772500, 0.069454, 0.069554, 99.855557
1.775000, 0.069454, 0.069554, 99.855689
1.777500, 0.069454, 0.069554, 99.855820
1.780000, 0.069454, 0.069554, 99.855954
1.782500, 0.069454, 0.069554, 99.856088
1.785000, 0.069454, 0.069554, 99.856219
1.787500, 0.069454, 0.069554, 99.856344
1.790000, 0.069454, 0.069554, 99.856459
1.792500, 0.069455, 0.069554, 99.856576
1.795000, 0.069455, 0.069554, 99.856698
1.797500, 0.069455, 0.069554, 99.856820
1.800000, 0.069455, 0.069554, 99.856940
1.802500, 0.069455, 0.069554, 99.857055
1.805000, 0.069455, 0.069554, 99.857164
1.807500, 0.069455, 0.069554, 99.857264
1.810000, 0.069455, 0.069554, 99.857351
1.812500, 0.069455, 0.069554, 99.857424
1.815000, 0.069455, 0.069554, 99.857478
1.817500, 0.069455, 0.069554, 99.857512
1.820000, 0.069455, 0.069554, 99.857522
1.822500, 0.069455, 0.069554, 99.857509
1.825000, 0.069455, 0.069554, 99.857468
1.827500, 0.069455, 0.069554, 99.857398
1.830000, 0.069455, 0.069554, 99.857298
1.832500, 0.069455, 0.069554, 99.857170
1.835000, 0.069455, 0.069554, 99.857023
1.837500, 0.069455, 0.069554, 99.856860
1.840000, 0.069455, 0.069554, 99.856681
1.842500, 0.069454, 0.069554, 99.856484
1.845000, 0.069454, 0.069554, 99.856268
1.847500, 0.069454, 0.069554, 99.856044
1.850000, 0.069454, 0.069554, 99.855819
1.852500, 0.069454, 0.069554, 99.855599
1.855000, 0.069454, 0.069554, 99.855383
1.857500, 0.069454, 0.069554, 99.855167
1.860000, 0.069453, 0.069554, 99.854949
1.862500, 0.069453, 0.069554, 99.854731
1.865000, 0.069453, 0.069554, 99.854521
1.867500, 0.069453, 0.069554, 99.854321
1.870000, 0.069453, 0.069554, 99.854131
1.872500, 0.069453, 0.069554, 99.853947
1.875000, 0.069453, 0.069554, 99.853766
1.877500, 0.069452, 0.069554, 99.853586
1.880000, 0.069452, 0.069554, 99.853410
1.882500, 0.069452, 0.069554, 99.853235
1.885000, 0.069452, 0.069554, 99.853059
1.887500, 0.069452, 0.069554, 99.852882
1.890000, 0.069452, 0.069554, 99.852712
1.892500, 0.069452, 0.069554, 99.852553
1.895000, 0.069452, 0.069554, 99.852412
1.897500, 0.069452, 0.069554, 99.852284
1.900000, 0.069451, 0.069554, 99.852169
1.902500, 0.069451, 0.069554, 99.852083
1.905000, 0.069451, 0.069554, 99.852024
1.907500, 0.069451, 0.069554, 99.851994
1.910000, 0.069451, 0.069554, 99.851992
1.912500, 0.069451, 0.069554, 99.852014
1.915000, 0.069451, 0.069554, 99.852056
1.917500, 0.069451, 0.069554, 99.852113
1.920000, 0.069451, 0.069554, 99.852184
1.922500, 0.069452, 0.069554, 99.852270
1.925000, 0.069452, 0.069554, 99.852368
1.927500, 0.069452, 0.069554, 99.852477
1.930000, 0.069452, 0.069554, 99.852591
1.932500, 0.069452, 0.069554, 99.852708
1.935000, 0.069452, 0.069554, 99.852823
1.937500, 0.069452, 0.069554, 99.852935
1.940000, 0.069452, 0.069554, 99.853050
1.942500, 0.069452, 0.069554, 99.853176
1.945000, 0.069452, 0.069554, 99.853312
1.947500, 0.069452, 0.069554, 99.853452
1.950000, 0.069452, 0.069554, 99.853594
1.952500, 0.069453, 0.069554, 99.853735
1.955000, 0.069453, 0.069554, 99.853876
1.957500, 0.069453, 0.069554, 99.854019
1.960000, 0.069453, 0.069554, 99.854160
1.962500, 0.069453, 0.069554, 99.854295
1.965000, 0.069453, 0.069554, 99.854423
1.967500, 0.069453, 0.069554, 99.854543
1.970000, 0.069453, 0.069554, 99.854667
1.972500, 0.069453, 0.069554, 99.854794
1.975000, 0.069453, 0.069554, 99.854920
1.977500, 0.069453, 0.069554, 99.855043
1.980000, 0.069454, 0.069554, 99.855162
1.982500, 0.069454, 0.069554, 99.855273
1.985000, 0.069454, 0.069554, 99.855374
1.987500, 0.069454, 0.069554, 99.855461
1.990000, 0.069454, 0.069554, 99.855531
1.992500, 0.069454, 0.069554, 99.855583
1.995000, 0.069454, 0.069554, 99.855615
1.997500, 0.069454, 0.069554, 99.855622
2.000000, 0.069454, 0.069554, 99.855605
2.002500, 0.069454, 0.069554, 99.855561
2.005000, 0.069454, 0.069554, 99.855488
2.007500, 0.069454, 0.069554, 99.855386
2.010000, 0.069454, 0.069554, 99.855258
2.012500, 0.069454, 0.069554, 99.855114
2.015000, 0.069453, 0.069554, 99.854952
2.017500, 0.069453, 0.069554, 99.854774
2.020000, 0.069453, 0.069554, 99.854578
2.022500, 0.069453, 0.069554, 99.854368
2.025000, 0.069453, 0.069554, 99.854152
2.027500, 0.069453, 0.069554, 99.853936
2.030000, 0.069453, 0.069554, 99.853724
2.032500, 0.069452, 0.069554, 99.853515
2.035000, 0.069452, 0.069554, 99.853306
2.037500, 0.069452, 0.069554, 99.853095
2.040000, 0.069452, 0.069554, 99.852883
2.042500, 0.069452, 0.069554, 99.852679
2.045000, 0.069452, 0.069554, 99.852487
2.047500, 0.069452, 0.069554, 99.852304
2.050000, 0.069451, 0.069554, 99.852125
2.052500, 0.069451, 0.069554, 99.851949
2.055000, 0.069451, 0.069554, 99.851776
2.057500, 0.069451, 0.069554, 99.851607
2.060000, 0.069451, 0.069554, 99.851440
2.062500, 0.069451, 0.069554, 99.851275
2.065000, 0.069451, 0.069554, 99.851109
2.067500, 0.069451, 0.069554, 99.850951
2.070000, 0.069451, 0.069554, 99.850804
2.072500, 0.069450, 0.069554, 99.850672
2.075000, 0.069450, 0.069554, 99.850553
2.077500, 0.069450, 0.069554, 99.850447
2.080000, 0.069450, 0.069554, 99.850367
2.082500, 0.069450, 0.069554, 99.850316
2.085000, 0.069450, 0.069554, 99.850294
2.087500, 0.069450, 0.069554, 99.850300
2.090000, 0.069450, 0.069554, 99.850329
2.092500, 0.069450, 0.069554, 99.850378
2.095000, 0.069450, 0.069554, 99.850444
2.097500, 0.069450, 0.069554, 99.850522
2.100000, 0.069450, 0.069554, 99.850617
2.102500, 0.069450, 0.069554, 99.850724
2.105000, 0.069451, 0.069554, 99.850842
2.107500, 0.069451, 0.069554, 99.850965
2.110000, 0.069451, 0.069554, 99.851090
2.112500, 0.069451, 0.069554, 99.851213
2.115000, 0.069451, 0.069554, 99.851332
2.117500, 0.069451, 0.069554, 99.851455
2.120000, 0.069451, 0.069554, 99.851588
2.122500, 0.069451, 0.069554, 99.851730
2.125000, 0.069451, 0.069554, 99.851877
2.127500, 0.069451, 0.069554, 99.852025
2.130000, 0.069451, 0.069554, 99.852171
2.132500, 0.069452, 0.069554, 99.852317
2.135000, 0.069452, 0.069554, 99.852465
2.137500, 0.069452, 0.069554, 99.852611
2.140000, 0.069452, 0.069554, 99.852751
2.142500, 0.069452, 0.069554, 99.852883
2.145000, 0.069452, 0.069554, 99.853007
2.147500, 0.069452, 0.069554, 99.853133
2.150000, 0.069452, 0.069554, 99.853263
2.152500, 0.069452, 0.069554, 99.853392
2.155000, 0.069452, 0.069554, 99.853518
2.157500, 0.069453, 0.069554, 99.853640
2.160000, 0.069453, 0.069554, 99.853755
2.162500, 0.069453, 0.069554, 99.853860
2.165000, 0.069453, 0.069554, 99.853951
2.167500, 0.069453, 0.069554, 99.854027
2.170000, 0.069453, 0.069554, 99.854085
2.172500, 0.069453, 0.069554, 99.854122
2.175000, 0.069453, 0.069554, 99.854137
2.177500, 0.069453, 0.069554, 99.854126
2.180000, 0.069453, 0.069554, 99.854089
2.182500, 0.069453, 0.069554, 99.854025
2.185000, 0.069453, 0.069554, 99.853930
2.187500, 0.069453, 0.069554, 99.853808
2.190000, 0.069453, 0.069554, 99.853669
2.192500, 0.069452, 0.069554, 99.853513
2.195000, 0.069452, 0.069554, 99.853341
2.197500, 0.069452, 0.069554, 99.853150
2.200000, 0.069452, 0.069554, 99.852947
2.202500, 0.069452, 0.069554, 99.852738
2.205000, 0.069452, 0.069554, 99.852527
2.207500, 0.069452, 0.069554, 99.852320
2.210000, 0.069451, 0.069554, 99.852117
2.212500, 0.069451, 0.069554, 99.851914
2.215000, 0.069451, 0.069554, 99.851710
2.217500, 0.069451, 0.069554, 99.851503
2.220000, 0.069451, 0.069554, 99.851304
2.222500, 0.069451, 0.069554, 99.851116
2.225000, 0.069451, 0.069554, 99.850938
2.227500, 0.069451, 0.069554, 99.850765
2.230000, 0.069450, 0.069554, 99.850596
2.232500, 0.069450, 0.069554, 99.850429
2.235000, 0.069450, 0.069554, 99.850268
2.237500, 0.069450, 0.069554, 99.850110
2.240000, 0.069450, 0.069554, 99.849953
2.242500, 0.069450, 0.069554, 99.849796
2.245000, 0.069450, 0.069554, 99.849642
2.247500, 0.069450, 0.069554, 99.849498
2.250000, 0.069450, 0.069554, 99.849369
2.252500, 0.069449, 0.069554, 99.849254
2.255000, 0.069449, 0.069554, 99.849150
2.257500, 0.069449, 0.069554, 99.849069
2.260000, 0.069449, 0.069554, 99.849019
2.262500, 0.069449, 0.069554, 99.848997
2.265000, 0.069449, 0.069554, 99.849005
2.267500, 0.069449, 0.069554, 99.849037
2.270000, 0.069449, 0.069554, 99.849089
2.272500, 0.069449, 0.069554, 99.849159
2.275000, 0.069449, 0.069554, 99.849242
2.277500, 0.069450, 0.069554, 99.849339
2.280000, 0.069450, 0.069554, 99.849450
2.282500, 0.069450, 0.069554, 99.849572
2.285000, 0.069450, 0.069554, 99.849699
2.287500, 0.069450, 0.069554, 99.849829
2.290000, 0.069450, 0.069554, 99.849957
2.292500, 0.069450, 0.069554, 99.850082
2.295000, 0.069450, 0.069554, 99.850206
2.297500, 0.069450, 0.069554, 99.850339
2.300000, 0.069450, 0.069554, 99.850481
2.302500, 0.069450, 0.069554, 99.850631
2.305000, 0.069451, 0.069554, 99.850782
2.307500, 0.069451, 0.069554, 99.850932
2.310000, 0.069451, 0.069554, 99.851081
2.312500, 0.069451, 0.069554, 99.851231
2.315000, 0.069451, 0.069554, 99.851380
2.317500, 0.069451, 0.069554, 99.851525
2.320000, 0.069451, 0.069554, 99.851663
2.322500, 0.069451, 0.069554, 99.851791
2.325000, 0.069451, 0.069554, 99.851918
2.327500, 0.069451, 0.069554, 99.852049
2.330000, 0.069451, 0.069554, 99.852181
2.332500, 0.069452, 0.069554, 99.852310
2.335000, 0.069452, 0.069554, 99.852436
2.337500, 0.069452, 0.069554, 99.852555
2.340000, 0.069452, 0.069554, 99.852665
2.342500, 0.069452, 0.069554, 99.852763
2.345000, 0.069452, 0.069554, 99.852847
2.347500, 0.069452, 0.069554, 99.852913
2.350000, 0.069452, 0.069554, 99.852959
2.352500, 0.069452, 0.069554, 99.852984
2.355000, 0.069452, 0.069554, 99.852984
2.357500, 0.069452, 0.069554, 99.852958
2.360000, 0.069452, 0.069554, 99.852906
2.362500, 0.069452, 0.069554, 99.852826
2.365000, 0.069452, 0.069554, 99.852714
2.367500, 0.069452, 0.069554, 99.852583
2.370000, 0.069452, 0.069554, 99.852434
2.372500, 0.069452, 0.069554, 99.852270
2.375000, 0.069451, 0.069554, 99.852089
2.377500, 0.069451, 0.069554, 99.851891
2.380000, 0.069451, 0.069554, 99.851685
2.382500, 0.069451, 0.069554, 99.851474
2.385000, 0.069451, 0.069554, 99.851265
2.387500, 0.069451, 0.069554, 99.851062
2.390000, 0.069451, 0.069554, 99.850860
2.392500, 0.069450, 0.069554, 99.850658
2.395000, 0.069450, 0.069554, 99.850454
2.397500, 0.069450, 0.069554, 99.850251
2.400000, 0.069450, 0.069554, 99.850059
2.402500, 0.069450, 0.069554, 99.849878
2.405000, 0.069450, 0.069554, 99.849706
2.407500, 0.069450, 0.069554, 99.849539
2.410000, 0.069450, 0.069554, 99.849375
2.412500, 0.069449, 0.069554, 99.849216
2.415000, 0.069449, 0.069554, 99.849063
2.417500, 0.069449, 0.069554, 99.848911
2.420000, 0.069449, 0.069554, 99.848760
2.422500, 0.069449, 0.069554, 99.848608
2.425000, 0.069449, 0.069554, 99.848463
2.427500, 0.069449, 0.069554, 99.848332
2.430000, 0.069449, 0.069554, 99.848214
2.432500, 0.069449, 0.069554, 99.848110
2.435000, 0.069449, 0.069554, 99.848020
2.437500, 0.069449, 0.069554, 99.847958
2.440000, 0.069449, 0.069554, 99.847925
2.442500, 0.069449, 0.069554, 99.847921
2.445000, 0.069449, 0.069554, 99.847944
2.447500, 0.069449, 0.069554, 99.847990
2.450000, 0.069449, 0.069554, 99.848055
2.452500, 0.069449, 0.069554, 99.848134
2.455000, 0.069449, 0.069554, 99.848229
2.457500, 0.069449, 0.069554, 99.848337
2.460000, 0.069449, 0.069554, 99.848457
2.462500, 0.069449, 0.069554, 99.848586
2.465000, 0.069449, 0.069554, 99.848719
2.467500, 0.069449, 0.069554, 99.848853
2.470000, 0.069449, 0.069554, 99.848984
2.472500, 0.069449, 0.069554, 99.849111
2.475000, 0.069449, 0.069554, 99.849242
2.477500, 0.069450, 0.069554, 99.849382
2.480000, 0.069450, 0.069554, 99.849531
2.482500, 0.069450, 0.069554, 99.849684
2.485000, 0.069450, 0.069554, 99.849839
2.487500, 0.069450, 0.069554, 99.849991
2.490000, 0.069450, 0.069554, 99.850143
2.492500, 0.069450, 0.069554, 99.850296
2.495000, 0.069450, 0.069554, 99.850446
2.497500, 0.069450, 0.069554, 99.850591
2.500000, 0.069450, 0.069554, 99.850727
2.502500, 0.069451, 0.069554, 99.850856
2.505000, 0.069451, 0.069554, 99.850985
2.507500, 0.069451, 0.069554, 99.851118
2.510000, 0.069451, 0.069554, 99.851251
2.512500, 0.069451, 0.069554, 99.851380
2.515000, 0.069451, 0.069554, 99.851505
2.517500, 0.069451, 0.069554, 99.851622
2.520000, 0.069451, 0.069554, 99.851730
2.522500, 0.069451, 0.069554, 99.851824
2.525000, 0.069451, 0.069554, 99.851902
2.527500, 0.069451, 0.069554, 99.851963
2.530000, 0.069451, 0.069554, 99.852004
2.532500, 0.069451, 0.069554, 99.852021
2.535000, 0.069451, 0.069554, 99.852014
2.537500, 0.069451, 0.069554, 99.851980
2.540000, 0.069451, 0.069554, 99.851918
2.542500, 0.069451, 0.069554, 99.851828
2.545000, 0.069451, 0.069554, 99.851708
2.547500, 0.069451, 0.069554, 99.851571
2.550000, 0.069451, 0.069554, 99.851418
2.552500, 0.069451, 0.069554, 99.851249
2.555000, 0.069451, 0.069554, 99.851063
2.557500, 0.069451, 0.069554, 99.850862
2.560000, 0.069450, 0.069554, 99.850654
2.562500, 0.069450, 0.069554, 99.850442
2.565000, 0.069450, 0.069554, 99.850236
2.567500, 0.069450, 0.069554, 99.850035
2.570000, 0.069450, 0.069554, 99.849835
2.572500, 0.069450, 0.069554, 99.849635
2.575000, 0.069450, 0.069554, 99.849432
2.577500, 0.069449, 0.069554, 99.849236
2.580000, 0.069449, 0.069554, 99.849052
2.582500, 0.069449, 0.069554, 99.848878
2.585000, 0.069449, 0.069554, 99.848711
2.587500, 0.069449, 0.069554, 99.848550
2.590000, 0.069449, 0.069554, 99.848392
2.592500, 0.069449, 0.069554, 99.848240
2.595000, 0.069449, 0.069554, 99.848091
2.597500, 0.069449, 0.069554, 99.847944
2.600000, 0.069448, 0.069554, 99.847797
2.602500, 0.069448, 0.069554, 99.847652
2.605000, 0.069448, 0.069554, 99.847515
2.607500, 0.069448, 0.069554, 99.847392
2.610000, 0.069448, 0.069554, 99.847284
2.612500, 0.069448, 0.069554, 99.847187
2.615000, 0.069448, 0.069554, 99.847109
2.617500, 0.069448, 0.069554, 99.847063
2.620000, 0.069448, 0.069554, 99.847044
2.622500, 0.069448, 0.069554, 99.847053
2.625000, 0.069448, 0.069554, 99.847090
2.627500, 0.069448, 0.069554, 99.847148
2.630000, 0.069448, 0.069554, 99.847224
2.632500, 0.069448, 0.069554, 99.847314
2.635000, 0.069448, 0.069554, 99.847417
2.637500, 0.069448, 0.069554, 99.847533
2.640000, 0.069448, 0.069554, 99.847659
2.642500, 0.069448, 0.069554, 99.847792
2.645000, 0.069449, 0.069554, 99.847928
2.647500, 0.069449, 0.069554, 99.848063
2.650000, 0.069449, 0.069554, 99.848196
2.652500, 0.069449, 0.069554, 99.848323
2.655000, 0.069449, 0.069554, 99.848457
2.657500, 0.069449, 0.069554, 99.848601
2.660000, 0.069449, 0.069554, 99.848753
2.662500, 0.069449, 0.069554, 99.848909
2.665000, 0.069449, 0.069554, 99.849066
2.667500, 0.069449, 0.069554, 99.849220
2.670000, 0.069450, 0.069554, 99.849374
2.672500, 0.069450, 0.069554, 99.849529
2.675000, 0.069450, 0.069554, 99.849681
2.677500, 0.069450, 0.069554, 99.849826
2.680000, 0.069450, 0.069554, 99.849962
2.682500, 0.069450, 0.069554, 99.850092
2.685000, 0.069450, 0.069554, 99.850225
2.687500, 0.069450, 0.069554, 99.850360
2.690000, 0.069450, 0.069554, 99.850494
2.692500, 0.069450, 0.069554, 99.850624
2.695000, 0.069450, 0.069554, 99.850749
2.697500, 0.069451, 0.069554, 99.850866
2.700000, 0.069451, 0.069554, 99.850971
2.702500, 0.069451, 0.069554, 99.851063
2.705000, 0.069451, 0.069554, 99.851138
2.707500, 0.069451, 0.069554, 99.851194
2.710000, 0.069451, 0.069554, 99.851229
2.712500, 0.069451, 0.069554, 99.851241
2.715000, 0.069451, 0.069554, 99.851229
2.717500, 0.069451, 0.069554, 99.851190
2.720000, 0.069451, 0.069554, 99.851122
2.722500, 0.069451, 0.069554, 99.851024
2.725000, 0.069451, 0.069554, 99.850900
2.727500, 0.069451, 0.069554, 99.850760
2.730000, 0.069450, 0.069554, 99.850603
2.732500, 0.069450, 0.069554, 99.850429
2.735000, 0.069450, 0.069554, 99.850239
2.737500, 0.069450, 0.069554, 99.850032
2.740000, 0.069450, 0.069554, 99.849819
2.742500, 0.069450, 0.069554, 99.849604
2.745000, 0.069450, 0.069554, 99.849396
2.747500, 0.069449, 0.069554, 99.849192
2.750000, 0.069449, 0.069554, 99.848991
2.752500, 0.069449, 0.069554, 99.848788
2.755000, 0.069449, 0.069554, 99.848583
2.757500, 0.069449, 0.069554, 99.848386
2.760000, 0.069449, 0.069554, 99.848202
2.762500, 0.069449, 0.069554, 99.848027
2.765000, 0.069448, 0.069554, 99.847861
2.767500, 0.069448, 0.069554, 99.847699
2.770000, 0.069448, 0.069554, 99.847540
2.772500, 0.069448, 0.069554, 99.847387
2.775000, 0.069448, 0.069554, 99.847238
2.777500, 0.069448, 0.069554, 99.847090
2.780000, 0.069448, 0.069554, 99.846941
2.782500, 0.069448, 0.069554, 99.846798
2.785000, 0.069448, 0.069554, 99.846663
2.787500, 0.069448, 0.069554, 99.846546
2.790000, 0.069448, 0.069554, 99.846444
2.792500, 0.069447, 0.069554, 99.846353
2.795000, 0.069447, 0.069554, 99.846281
2.797500, 0.069447, 0.069554, 99.846239
2.800000, 0.069447, 0.069554, 99.846225
2.802500, 0.069447, 0.069554, 99.846241
2.805000, 0.069447, 0.069554, 99.846282
2.807500, 0.069447, 0.069554, 99.846346
2.810000, 0.069447, 0.069554, 99.846427
2.812500, 0.069448, 0.069554, 99.846522
2.815000, 0.069448, 0.069554, 99.846629
2.817500, 0.069448, 0.069554, 99.846749
2.820000, 0.069448, 0.069554, 99.846878
2.822500, 0.069448, 0.069554, 99.847015
2.825000, 0.069448, 0.069554, 99.847155
2.827500, 0.069448, 0.069554, 99.847295
2.830000, 0.069448, 0.069554, 99.847430
2.832500, 0.069448, 0.069554, 99.847562
2.835000, 0.069448, 0.069554, 99.847699
2.837500, 0.069448, 0.069554, 99.847847
2.840000, 0.069449, 0.069554, 99.848002
2.842500, 0.069449, 0.069554, 99.848161
2.845000, 0.069449, 0.069554, 99.848319
2.847500, 0.069449, 0.069554, 99.848474
2.850000, 0.069449, 0.069554, 99.848630
2.852500, 0.069449, 0.069554, 99.848786
2.855000, 0.069449, 0.069554, 99.848939
2.857500, 0.069449, 0.069554, 99.849085
2.860000, 0.069449, 0.069554, 99.849221
2.862500, 0.069450, 0.069554, 99.849352
2.865000, 0.069450, 0.069554, 99.849485
2.867500, 0.069450, 0.069554, 99.849621
2.870000, 0.069450, 0.069554, 99.849757
2.872500, 0.069450, 0.069554, 99.849887
2.875000, 0.069450, 0.069554, 99.850013
2.877500, 0.069450, 0.069554, 99.850130
2.880000, 0.069450, 0.069554, 99.850236
2.882500, 0.069450, 0.069554, 99.850329
2.885000, 0.069450, 0.069554, 99.850405
2.887500, 0.069450, 0.069554, 99.850462
2.890000, 0.069450, 0.069554, 99.850498
2.892500, 0.069450, 0.069554, 99.850510
2.895000, 0.069450, 0.069554, 99.850497
2.897500, 0.069450, 0.069554, 99.850456
2.900000, 0.069450, 0.069554, 99.850387
2.902500, 0.069450, 0.069554, 99.850287
2.905000, 0.069450, 0.069554, 99.850161
2.907500, 0.069450, 0.069554, 99.850017
2.910000, 0.069450, 0.069554, 99.849859
2.912500, 0.069450, 0.069554, 99.849686
2.915000, 0.069450, 0.069554, 99.849495
2.917500, 0.069449, 0.069554, 99.849287
2.920000, 0.069449, 0.069554, 99.849071
2.922500, 0.069449, 0.069554, 99.848854
2.925000, 0.069449, 0.069554, 99.848644
2.927500, 0.069449, 0.069554, 99.848439
2.930000, 0.069449, 0.069554, 99.848235
2.932500, 0.069449, 0.069554, 99.848031
2.935000, 0.069448, 0.069554, 99.847827
2.937500, 0.069448, 0.069554, 99.847631
2.940000, 0.069448, 0.069554, 99.847447
2.942500, 0.069448, 0.069554, 99.847276
2.945000, 0.069448, 0.069554, 99.847110
2.947500, 0.069448, 0.069554, 99.846946
2.950000, 0.069448, 0.069554, 99.846787
2.952500, 0.069448, 0.069554, 99.846638
2.955000, 0.069448, 0.069554, 99.846493
2.957500, 0.069447, 0.069554, 99.846350
2.960000, 0.069447, 0.069554, 99.846205
2.962500, 0.069447, 0.069554, 99.846067
2.965000, 0.069447, 0.069554, 99.845937
2.967500, 0.069447, 0.069554, 99.845822
2.970000, 0.069447, 0.069554, 99.845721
2.972500, 0.069447, 0.069554, 99.845632
2.975000, 0.069447, 0.069554, 99.845567
2.977500, 0.069447, 0.069554, 99.845532
2.980000, 0.069447, 0.069554, 99.845527
2.982500, 0.069447, 0.069554, 99.845549
2.985000, 0.069447, 0.069554, 99.845600
2.987500, 0.069447, 0.069554, 99.845671
2.990000, 0.069447, 0.069554, 99.845759
2.992500, 0.069447, 0.069554, 99.845860
2.995000, 0.069447, 0.069554, 99.845972
2.997500, 0.069447, 0.069554, 99.846098
3.000000, 0.069447, 0.069554, 99.846232
3.002500, 0.069447, 0.069554, 99.846373
3.005000, 0.069448, 0.069554, 99.846517
3.007500, 0.069448, 0.069554, 99.846659
3.010000, 0.069448, 0.069554, 99.846798
3.012500, 0.069448, 0.069554, 99.846933
3.015000, 0.069448, 0.069554, 99.847074
3.017500, 0.069448, 0.069554, 99.847223
3.020000, 0.069448, 0.069554, 99.847380
3.022500, 0.069448, 0.069554, 99.847541
3.025000, 0.069448, 0.069554, 99.847701
3.027500, 0.069448, 0.069554, 99.847858
3.030000, 0.069449, 0.069554, 99.848016
3.032500, 0.069449, 0.069554, 99.848174
3.035000, 0.069449, 0.069554, 99.848328
3.037500, 0.069449, 0.069554, 99.848476
3.040000, 0.069449, 0.069554, 99.848613
3.042500, 0.069449, 0.069554, 99.848745
3.045000, 0.069449, 0.069554, 99.848881
3.047500, 0.069449, 0.069554, 99.849019
3.050000, 0.069449, 0.069554, 99.849156
3.052500, 0.069449, 0.069554, 99.849288
3.055000, 0.069450, 0.069554, 99.849415
3.057500, 0.069450, 0.069554, 99.849533
3.060000, 0.069450, 0.069554, 99.849640
3.062500, 0.069450, 0.069554, 99.849734
3.065000, 0.069450, 0.069554, 99.849811
3.067500, 0.069450, 0.069554, 99.849869
3.070000, 0.069450, 0.069554, 99.849904
3.072500, 0.069450, 0.069554, 99.849916
3.075000, 0.069450, 0.069554, 99.849903
3.077500, 0.069450, 0.069554, 99.849862
3.080000, 0.069450, 0.069554, 99.849792
3.082500, 0.069450, 0.069554, 99.849692
3.085000, 0.069450, 0.069554, 99.849563
3.087500, 0.069450, 0.069554, 99.849418
3.090000, 0.069449, 0.069554, 99.849257
3.092500, 0.069449, 0.069554, 99.849081
3.095000, 0.069449, 0.069554, 99.848888
3.097500, 0.069449, 0.069554, 99.848676
3.100000, 0.069449, 0.069554, 99.848454
3.102500, 0.069449, 0.069554, 99.848230
3.105000, 0.069449, 0.069554, 99.848012
3.107500, 0.069448, 0.069554, 99.847801
3.110000, 0.069448, 0.069554, 99.847592
3.112500, 0.069448, 0.069554, 99.847382
3.115000, 0.069448, 0.069554, 99.847172
3.117500, 0.069448, 0.069554, 99.846969
3.120000, 0.069448, 0.069554, 99.846778
3.122500, 0.069448, 0.069554, 99.846599
3.125000, 0.069447, 0.069554, 99.846429
3.127500, 0.069447, 0.069554, 99.846265
3.130000, 0.069447, 0.069554, 99.846105
3.132500, 0.069447, 0.069554, 99.845952
3.135000, 0.069447, 0.069554, 99.845803
3.137500, 0.069447, 0.069554, 99.845657
3.140000, 0.069447, 0.069554, 99.845510
3.142500, 0.069447, 0.069554, 99.845367
3.145000, 0.069447, 0.069554, 99.845233
3.147500, 0.069447, 0.069554, 99.845114
3.150000, 0.069447, 0.069554, 99.845010
3.152500, 0.069446, 0.069554, 99.844918
3.155000, 0.069446, 0.069554, 99.844846
3.157500, 0.069446, 0.069554, 99.844805
3.160000, 0.069446, 0.069554, 99.844794
3.162500, 0.069446, 0.069554, 99.844812
3.165000, 0.069446, 0.069554, 99.844858
3.167500, 0.069446, 0.069554, 99.844927
3.170000, 0.069447, 0.069554, 99.845015
3.172500, 0.069447, 0.069554, 99.845117
3.175000, 0.069447, 0.069554, 99.845230
3.177500, 0.069447, 0.069554, 99.845356
3.180000, 0.069447, 0.069554, 99.845491
3.182500, 0.069447, 0.069554, 99.845633
3.185000, 0.069447, 0.069554, 99.845779
3.187500, 0.069447, 0.069554, 99.845925
3.190000, 0.069447, 0.069554, 99.846068
3.192500, 0.069447, 0.069554, 99.846205
3.195000, 0.069447, 0.069554, 99.846345
3.197500, 0.069448, 0.069554, 99.846494
3.200000, 0.069448, 0.069554, 99.846650
3.202500, 0.069448, 0.069554, 99.846810
3.205000, 0.069448, 0.069554, 99.846961
3.207500, 0.069448, 0.069554, 99.847121
3.210000, 0.069448, 0.069554, 99.847291
3.212500, 0.069448, 0.069554, 99.847447
3.215000, 0.069448, 0.069554, 99.847601
3.217500, 0.069448, 0.069554, 99.847753
3.220000, 0.069449, 0.069554, 99.847892
3.222500, 0.069449, 0.069554, 99.848022
3.225000, 0.069449, 0.069554, 99.848154
3.227500, 0.069449, 0.069554, 99.848290
3.230000, 0.069449, 0.069554, 99.848426
3.232500, 0.069449, 0.069554, 99.848558
3.235000, 0.069449, 0.069554, 99.848686
3.237500, 0.069449, 0.069554, 99.848805
3.240000, 0.069449, 0.069554, 99.848916
3.242500, 0.069449, 0.069554, 99.849011
3.245000, 0.069449, 0.069554, 99.849090
3.247500, 0.069449, 0.069554, 99.849153
3.250000, 0.069449, 0.069554, 99.849194
3.252500, 0.069449, 0.069554, 99.849213
3.255000, 0.069449, 0.069554, 99.849207
3.257500, 0.069449, 0.069554, 99.849173
3.260000, 0.069449, 0.069554, 99.849111
3.262500, 0.069449, 0.069554, 99.849018
3.265000, 0.069449, 0.069554, 99.848895
3.267500, 0.069449, 0.069554, 99.848753
3.270000, 0.069449, 0.069554, 99.848594
3.272500, 0.069449, 0.069554, 99.848421
3.275000, 0.069449, 0.069554, 99.848232
3.277500, 0.069449, 0.069554, 99.848025
3.280000, 0.069448, 0.069554, 99.847805
3.282500, 0.069448, 0.069554, 99.847582
3.285000, 0.069448, 0.069554, 99.847364
3.287500, 0.069448, 0.069554, 99.847154
3.290000, 0.069448, 0.069554, 99.846949
3.292500, 0.069448, 0.069554, 99.846744
3.295000, 0.069448, 0.069554, 99.846539
3.297500, 0.069447, 0.069554, 99.846339
3.300000, 0.069447, 0.069554, 99.846152
3.302500, 0.069447, 0.069554, 99.845978
3.305000, 0.069447, 0.069554, 99.845814
3.307500, 0.069447, 0.069554, 99.845656
3.310000, 0.069447, 0.069554, 99.845484
3.312500, 0.069447, 0.069554, 99.845314
3.315000, 0.069447, 0.069554, 99.845159
3.317500, 0.069447, 0.069554, 99.845016
3.320000, 0.069446, 0.069554, 99.844873
3.322500, 0.069446, 0.069554, 99.844732
3.325000, 0.069446, 0.069554, 99.844599
3.327500, 0.069446, 0.069554, 99.844478
3.330000, 0.069446, 0.069554, 99.844373
3.332500, 0.069446, 0.069554, 99.844281
3.335000, 0.069446, 0.069554, 99.844204
3.337500, 0.069446, 0.069554, 99.844157
3.340000, 0.069446, 0.069554, 99.844142
3.342500, 0.069446, 0.069554, 99.844154
3.345000, 0.069446, 0.069554, 99.844196
3.347500, 0.069446, 0.069554, 99.844262
3.350000, 0.069446, 0.069554, 99.844349
3.352500, 0.069446, 0.069554, 99.844451
3.355000, 0.069446, 0.069554, 99.844574
3.357500, 0.069446, 0.069554, 99.844708
3.360000, 0.069446, 0.069554, 99.844853
3.362500, 0.069446, 0.069554, 99.845004
3.365000, 0.069447, 0.069554, 99.845160
3.367500, 0.069447, 0.069554, 99.845306
3.370000, 0.069447, 0.069554, 99.845451
3.372500, 0.069447, 0.069554, 99.845590
3.375000, 0.069447, 0.069554, 99.845726
3.377500, 0.069447, 0.069554, 99.845870
3.380000, 0.069447, 0.069554, 99.846025
3.382500, 0.069447, 0.069554, 99.846185
3.385000, 0.069447, 0.069554, 99.846346
3.387500, 0.069448, 0.069554, 99.846505
3.390000, 0.069448, 0.069554, 99.846662
3.392500, 0.069448, 0.069554, 99.846818
3.395000, 0.069448, 0.069554, 99.846979
3.397500, 0.069448, 0.069554, 99.847129
3.400000, 0.069448, 0.069554, 99.847283
3.402500, 0.069448, 0.069554, 99.847430
3.405000, 0.069448, 0.069554, 99.847570
3.407500, 0.069448, 0.069554, 99.847708
3.410000, 0.069448, 0.069554, 99.847846
3.412500, 0.069449, 0.069554, 99.847983
3.415000, 0.069449, 0.069554, 99.848112
3.417500, 0.069449, 0.069554, 99.848236
3.420000, 0.069449, 0.069554, 99.848349
3.422500, 0.069449, 0.069554, 99.848452
3.425000, 0.069449, 0.069554, 99.848539
3.427500, 0.069449, 0.069554, 99.848610
3.430000, 0.069449, 0.069554, 99.848661
3.432500, 0.069449, 0.069554, 99.848690
3.435000, 0.069449, 0.069554, 99.848695
3.437500, 0.069449, 0.069554, 99.848673
3.440000, 0.069449, 0.069554, 99.848623
3.442500, 0.069449, 0.069554, 99.848544
3.445000, 0.069449, 0.069554, 99.848433
3.447500, 0.069449, 0.069554, 99.848296
3.450000, 0.069449, 0.069554, 99.848143
3.452500, 0.069449, 0.069554, 99.847973
3.455000, 0.069448, 0.069554, 99.847787
3.457500, 0.069448, 0.069554, 99.847584
3.460000, 0.069448, 0.069554, 99.847364
3.462500, 0.069448, 0.069554, 99.847138
3.465000, 0.069448, 0.069554, 99.846908
3.467500, 0.069448, 0.069554, 99.846679
3.470000, 0.069448, 0.069554, 99.846457
3.472500, 0.069447, 0.069554, 99.846239
3.475000, 0.069447, 0.069554, 99.846020
3.477500, 0.069447, 0.069554, 99.845799
3.480000, 0.069447, 0.069554, 99.845581
3.482500, 0.069447, 0.069554, 99.845377
3.485000, 0.069447, 0.069554, 99.845186
3.487500, 0.069446, 0.069554, 99.845005
3.490000, 0.069446, 0.069554, 99.844832
3.492500, 0.069446, 0.069554, 99.844664
3.495000, 0.069446, 0.069554, 99.844503
3.497500, 0.069446, 0.069554, 99.844349
3.500000, 0.069446, 0.069554, 99.844197
3.502500, 0.069446, 0.069554, 99.844046
3.505000, 0.069446, 0.069554, 99.843894
3.507500, 0.069446, 0.069554, 99.843748
3.510000, 0.069446, 0.069554, 99.843620
3.512500, 0.069445, 0.069554, 99.843509
3.515000, 0.069445, 0.069554, 99.843411
3.517500, 0.069445, 0.069554, 99.843325
3.520000, 0.069445, 0.069554, 99.843263
3.522500, 0.069445, 0.069554, 99.843232
3.525000, 0.069445, 0.069554, 99.843233
3.527500, 0.069445, 0.069554, 99.843264
3.530000, 0.069445, 0.069554, 99.843320
3.532500, 0.069445, 0.069554, 99.843396
3.535000, 0.069445, 0.069554, 99.843489
3.537500, 0.069446, 0.069554, 99.843597
3.540000, 0.069446, 0.069554, 99.843719
3.542500, 0.069446, 0.069554, 99.843854
3.545000, 0.069446, 0.069554, 99.843971
3.547500, 0.069446, 0.069554, 99.844118
3.550000, 0.069446, 0.069554, 99.844261
3.552500, 0.069446, 0.069554, 99.844406
3.555000, 0.069446, 0.069554, 99.844548
3.557500, 0.069446, 0.069554, 99.844690
3.560000, 0.069446, 0.069554, 99.844838
3.562500, 0.069446, 0.069554, 99.844995
3.565000, 0.069447, 0.069554, 99.845159
3.567500, 0.069447, 0.069554, 99.845326
3.570000, 0.069447, 0.069554, 99.845491
3.572500, 0.069447, 0.069554, 99.845652
3.575000, 0.069447, 0.069554, 99.845811
3.577500, 0.069447, 0.069554, 99.845970
3.580000, 0.069447, 0.069554, 99.846125
3.582500, 0.069447, 0.069554, 99.846272
3.585000, 0.069447, 0.069554, 99.846408
3.587500, 0.069448, 0.069554, 99.846535
3.590000, 0.069448, 0.069554, 99.846663
3.592500, 0.069448, 0.069554, 99.846792
3.595000, 0.069448, 0.069554, 99.846921
3.597500, 0.069448, 0.069554, 99.847048
3.600000, 0.069448, 0.069554, 99.847170
3.602500, 0.069448, 0.069554, 99.847282
3.605000, 0.069448, 0.069554, 99.847382
3.607500, 0.069448, 0.069554, 99.847471
3.610000, 0.069448, 0.069554, 99.847543
3.612500, 0.069448, 0.069554, 99.847597
3.615000, 0.069448, 0.069554, 99.847630
3.617500, 0.069448, 0.069554, 99.847641
3.620000, 0.069448, 0.069554, 99.847626
3.622500, 0.069448, 0.069554, 99.847585
3.625000, 0.069448, 0.069554, 99.847516
3.627500, 0.069448, 0.069554, 99.847420
3.630000, 0.069448, 0.069554, 99.847292
3.632500, 0.069448, 0.069554, 99.847138
3.635000, 0.069448, 0.069554, 99.846969
3.637500, 0.069448, 0.069554, 99.846780
3.640000, 0.069448, 0.069554, 99.846574
3.642500, 0.069447, 0.069554, 99.846367
3.645000, 0.069447, 0.069554, 99.846161
3.647500, 0.069447, 0.069554, 99.845958
3.650000, 0.069447, 0.069554, 99.845748
3.652500, 0.069447, 0.069554, 99.845536
3.655000, 0.069447, 0.069554, 99.845333
3.657500, 0.069447, 0.069554, 99.845128
3.660000, 0.069446, 0.069554, 99.844921
3.662500, 0.069446, 0.069554, 99.844714
3.665000, 0.069446, 0.069554, 99.844520
3.667500, 0.069446, 0.069554, 99.844340
3.670000, 0.069446, 0.069554, 99.844173
3.672500, 0.069446, 0.069554, 99.844016
3.675000, 0.069446, 0.069554, 99.843863
3.677500, 0.069446, 0.069554, 99.843711
3.680000, 0.069446, 0.069554, 99.843573
3.682500, 0.069445, 0.069554, 99.843433
3.685000, 0.069445, 0.069554, 99.843295
3.687500, 0.069445, 0.069554, 99.843170
3.690000, 0.069445, 0.069554, 99.843034
3.692500, 0.069445, 0.069554, 99.842902
3.695000, 0.069445, 0.069554, 99.842786
3.697500, 0.069445, 0.069554, 99.842686
3.700000, 0.069445, 0.069554, 99.842600
3.702500, 0.069445, 0.069554, 99.842525
3.705000, 0.069445, 0.069554, 99.842474
3.707500, 0.069445, 0.069554, 99.842455
3.710000, 0.069445, 0.069554, 99.842467
3.712500, 0.069445, 0.069554, 99.842506
3.715000, 0.069445, 0.069554, 99.842568
3.717500, 0.069445, 0.069554, 99.842649
3.720000, 0.069445, 0.069554, 99.842757
3.722500, 0.069445, 0.069554, 99.842876
3.725000, 0.069445, 0.069554, 99.843011
3.727500, 0.069445, 0.069554, 99.843159
3.730000, 0.069445, 0.069554, 99.843315
3.732500, 0.069445, 0.069554, 99.843475
3.735000, 0.069446, 0.069554, 99.843636
3.737500, 0.069446, 0.069554, 99.843795
3.740000, 0.069446, 0.069554, 99.843950
3.742500, 0.069446, 0.069554, 99.844108
3.745000, 0.069446, 0.069554, 99.844268
3.747500, 0.069446, 0.069554, 99.844436
3.750000, 0.069446, 0.069554, 99.844608
3.752500, 0.069446, 0.069554, 99.844782
3.755000, 0.069446, 0.069554, 99.844954
3.757500, 0.069447, 0.069554, 99.845121
3.760000, 0.069447, 0.069554, 99.845282
3.762500, 0.069447, 0.069554, 99.845442
3.765000, 0.069447, 0.069554, 99.845597
3.767500, 0.069447, 0.069554, 99.845746
3.770000, 0.069447, 0.069554, 99.845884
3.772500, 0.069447, 0.069554, 99.846010
3.775000, 0.069447, 0.069554, 99.846131
3.777500, 0.069447, 0.069554, 99.846257
3.780000, 0.069447, 0.069554, 99.846385
3.782500, 0.069448, 0.069554, 99.846511
3.785000, 0.069448, 0.069554, 99.846628
3.787500, 0.069448, 0.069554, 99.846736
3.790000, 0.069448, 0.069554, 99.846834
3.792500, 0.069448, 0.069554, 99.846919
3.795000, 0.069448, 0.069554, 99.846989
3.797500, 0.069448, 0.069554, 99.847047
3.800000, 0.069448, 0.069554, 99.847083
3.802500, 0.069448, 0.069554, 99.847106
3.805000, 0.069448, 0.069554, 99.847096
3.807500, 0.069448, 0.069554, 99.847057
3.810000, 0.069448, 0.069554, 99.846998
3.812500, 0.069448, 0.069554, 99.846911
3.815000, 0.069448, 0.069554, 99.846796
3.817500, 0.069448, 0.069554, 99.846654
3.820000, 0.069448, 0.069554, 99.846495
3.822500, 0.069447, 0.069554, 99.846319
3.825000, 0.069447, 0.069554, 99.846137
3.827500, 0.069447, 0.069554, 99.845948
3.830000, 0.069447, 0.069554, 99.845755
3.832500, 0.069447, 0.069554, 99.845556
3.835000, 0.069447, 0.069554, 99.845351
3.837500, 0.069447, 0.069554, 99.845137
3.840000, 0.069446, 0.069554, 99.844922
3.842500, 0.069446, 0.069554, 99.844690
3.845000, 0.069446, 0.069554, 99.844445
3.847500, 0.069446, 0.069554, 99.844192
3.850000, 0.069446, 0.069554, 99.843938
3.852500, 0.069446, 0.069554, 99.843695
3.855000, 0.069445, 0.069554, 99.843453
3.857500, 0.069445, 0.069554, 99.843203
3.860000, 0.069445, 0.069554, 99.842948
3.862500, 0.069445, 0.069554, 99.842693
3.865000, 0.069445, 0.069554, 99.842445
3.867500, 0.069445, 0.069554, 99.842208
3.870000, 0.069444, 0.069554, 99.841978
3.872500, 0.069444, 0.069554, 99.841753
3.875000, 0.069444, 0.069554, 99.841530
3.877500, 0.069444, 0.069554, 99.841308
3.880000, 0.069444, 0.069554, 99.841089
3.882500, 0.069444, 0.069554, 99.840882
3.885000, 0.069443, 0.069554, 99.840683
3.887500, 0.069443, 0.069554, 99.840491
3.890000, 0.069443, 0.069554, 99.840310
3.892500, 0.069443, 0.069554, 99.840141
3.895000, 0.069443, 0.069554, 99.839983
3.897500, 0.069443, 0.069554, 99.839839
3.900000, 0.069443, 0.069554, 99.839706
3.902500, 0.069443, 0.069554, 99.839594
3.905000, 0.069443, 0.069554, 99.839518
3.907500, 0.069443, 0.069554, 99.839475
3.910000, 0.069443, 0.069554, 99.839463
3.912500, 0.069443, 0.069554, 99.839476
3.915000, 0.069443, 0.069554, 99.839511
3.917500, 0.069443, 0.069554, 99.839565
3.920000, 0.069443, 0.069554, 99.839634
3.922500, 0.069443, 0.069554, 99.839713
3.925000, 0.069443, 0.069554, 99.839801
3.927500, 0.069443, 0.069554, 99.839896
3.930000, 0.069443, 0.069554, 99.840004
3.932500, 0.069443, 0.069554, 99.840124
3.935000, 0.069443, 0.069554, 99.840251
3.937500, 0.069443, 0.069554, 99.840383
3.940000, 0.069443, 0.069554, 99.840516
3.942500, 0.069443, 0.069554, 99.840648
3.945000, 0.069444, 0.069554, 99.840780
3.947500, 0.069444, 0.069554, 99.840915
3.950000, 0.069444, 0.069554, 99.841049
3.952500, 0.069444, 0.069554, 99.841180
3.955000, 0.069444, 0.069554, 99.841305
3.957500, 0.069444, 0.069554, 99.841423
3.960000, 0.069444, 0.069554, 99.841537
3.962500, 0.069444, 0.069554, 99.841651
3.965000, 0.069444, 0.069554, 99.841761
3.967500, 0.069444, 0.069554, 99.841864
3.970000, 0.069444, 0.069554, 99.841960
3.972500, 0.069444, 0.069554, 99.842045
3.975000, 0.069445, 0.069554, 99.842131
3.977500, 0.069445, 0.069554, 99.842221
3.980000, 0.069445, 0.069554, 99.842312
3.982500, 0.069445, 0.069554, 99.842403
3.985000, 0.069445, 0.069554, 99.842489
3.987500, 0.069445, 0.069554, 99.842570
3.990000, 0.069445, 0.069554, 99.842644
3.992500, 0.069445, 0.069554, 99.842710
3.995000, 0.069445, 0.069554, 99.842764
3.997500, 0.069445, 0.069554, 99.842800
4.000000, 0.069445, 0.069554, 99.842823
4.002500, 0.069445, 0.069554, 99.842834
