Time, V_g(t), V_g(0), V_g(t)/V_g(0)
0.002500, 0.065986, 0.065986, 100.000000
0.005000, 0.065993, 0.065986, 100.010776
0.007500, 0.065995, 0.065986, 100.013031
0.010000, 0.065995, 0.065986, 100.013594
0.012500, 0.065995, 0.065986, 100.013537
0.015000, 0.065995, 0.065986, 100.012918
0.017500, 0.065994, 0.065986, 100.012270
0.020000, 0.065994, 0.065986, 100.011436
0.022500, 0.065993, 0.065986, 100.010608
0.025000, 0.065993, 0.065986, 100.009784
0.027500, 0.065992, 0.065986, 100.008818
0.030000, 0.065991, 0.065986, 100.007925
0.032500, 0.065991, 0.065986, 100.006937
0.035000, 0.065990, 0.065986, 100.005752
0.037500, 0.065989, 0.065986, 100.004742
0.040000, 0.065989, 0.065986, 100.003607
0.042500, 0.065988, 0.065986, 100.002323
0.045000, 0.065987, 0.065986, 100.001004
0.047500, 0.065986, 0.065986, 99.999581
0.050000, 0.065985, 0.065986, 99.998140
0.052500, 0.065984, 0.065986, 99.996770
0.055000, 0.065983, 0.065986, 99.995278
0.057500, 0.065982, 0.065986, 99.993790
0.060000, 0.065981, 0.065986, 99.992412
0.062500, 0.065980, 0.065986, 99.990936
0.065000, 0.065979, 0.065986, 99.989370
0.067500, 0.065978, 0.065986, 99.987944
0.070000, 0.065977, 0.065986, 99.986538
0.072500, 0.065976, 0.065986, 99.985155
0.075000, 0.065976, 0.065986, 99.983759
0.077500, 0.065975, 0.065986, 99.982363
0.080000, 0.065974, 0.065986, 99.981004
0.082500, 0.065973, 0.065986, 99.979672
0.085000, 0.065972, 0.065986, 99.978348
0.087500, 0.065971, 0.065986, 99.977047
0.090000, 0.065970, 0.065986, 99.975780
0.092500, 0.065969, 0.065986, 99.974553
0.095000, 0.065969, 0.065986, 99.973365
0.097500, 0.065968, 0.065986, 99.972221
0.100000, 0.065967, 0.065986, 99.971125
0.102500, 0.065967, 0.065986, 99.970085
0.105000, 0.065966, 0.065986, 99.969078
0.107500, 0.065965, 0.065986, 99.968005
0.110000, 0.065965, 0.065986, 99.967112
0.112500, 0.065964, 0.065986, 99.966269
0.115000, 0.065963, 0.065986, 99.965486
0.117500, 0.065963, 0.065986, 99.964763
0.120000, 0.065963, 0.065986, 99.964104
0.122500, 0.065962, 0.065986, 99.963501
0.125000, 0.065962, 0.065986, 99.962947
0.127500, 0.065961, 0.065986, 99.962437
0.130000, 0.065961, 0.065986, 99.961966
0.132500, 0.065961, 0.065986, 99.961531
0.135000, 0.065961, 0.065986, 99.961132
0.137500, 0.065960, 0.065986, 99.960769
0.140000, 0.065960, 0.065986, 99.960378
0.142500, 0.065960, 0.065986, 99.960044
0.145000, 0.065960, 0.065986, 99.959806
0.147500, 0.065960, 0.065986, 99.959593
0.150000, 0.065959, 0.065986, 99.959408
0.152500, 0.065959, 0.065986, 99.959251
0.155000, 0.065959, 0.065986, 99.959122
0.157500, 0.065959, 0.065986, 99.959011
0.160000, 0.065959, 0.065986, 99.958886
0.162500, 0.065959, 0.065986, 99.958756
0.165000, 0.065959, 0.065986, 99.958591
0.167500, 0.065959, 0.065986, 99.958411
0.170000, 0.065959, 0.065986, 99.958184
0.172500, 0.065958, 0.065986, 99.957938
0.175000, 0.065958, 0.065986, 99.957646
0.177500, 0.065958, 0.065986, 99.957310
0.180000, 0.065958, 0.065986, 99.956931
0.182500, 0.065958, 0.065986, 99.956507
0.185000, 0.065957, 0.065986, 99.956039
0.187500, 0.065957, 0.065986, 99.955526
0.190000, 0.065957, 0.065986, 99.954970
0.192500, 0.065956, 0.065986, 99.954369
0.195000, 0.065956, 0.065986, 99.953722
0.197500, 0.065955, 0.065986, 99.953031
0.200000, 0.065955, 0.065986, 99.952306
0.202500, 0.065954, 0.065986, 99.951553
0.205000, 0.065954, 0.065986, 99.950777
0.207500, 0.065953, 0.065986, 99.949986
0.210000, 0.065953, 0.065986, 99.949194
0.212500, 0.065952, 0.065986, 99.948412
0.215000, 0.065952, 0.065986, 99.947655
0.217500, 0.065951, 0.065986, 99.946938
0.220000, 0.065951, 0.065986, 99.946279
0.222500, 0.065950, 0.065986, 99.945701
0.225000, 0.065950, 0.065986, 99.945217
0.227500, 0.065950, 0.065986, 99.944824
0.230000, 0.065950, 0.065986, 99.944484
0.232500, 0.065949, 0.065986, 99.944187
0.235000, 0.065949, 0.065986, 99.943954
0.237500, 0.065949, 0.065986, 99.943769
0.240000, 0.065949, 0.065986, 99.943613
0.242500, 0.065949, 0.065986, 99.943486
0.245000, 0.065949, 0.065986, 99.943398
0.247500, 0.065949, 0.065986, 99.943353
0.250000, 0.065949, 0.065986, 99.943315
0.252500, 0.065949, 0.065986, 99.943279
0.255000, 0.065949, 0.065986, 99.943247
0.257500, 0.065949, 0.065986, 99.943226
0.260000, 0.065949, 0.065986, 99.943227
0.262500, 0.065949, 0.065986, 99.943259
0.265000, 0.065949, 0.065986, 99.943342
0.267500, 0.065949, 0.065986, 99.943467
0.270000, 0.065949, 0.065986, 99.943591
0.272500, 0.065949, 0.065986, 99.943721
0.275000, 0.065949, 0.065986, 99.943876
0.277500, 0.065949, 0.065986, 99.944077
0.280000, 0.065950, 0.065986, 99.944347
0.282500, 0.065950, 0.065986, 99.944708
0.285000, 0.065950, 0.065986, 99.945183
0.287500, 0.065950, 0.065986, 99.945799
0.290000, 0.065951, 0.065986, 99.946577
0.292500, 0.065952, 0.065986, 99.947483
0.295000, 0.065952, 0.065986, 99.948484
0.297500, 0.065953, 0.065986, 99.949590
0.300000, 0.065954, 0.065986, 99.950798
0.302500, 0.065955, 0.065986, 99.952091
0.305000, 0.065956, 0.065986, 99.953451
0.307500, 0.065956, 0.065986, 99.954825
0.310000, 0.065957, 0.065986, 99.956193
0.312500, 0.065958, 0.065986, 99.957512
0.315000, 0.065959, 0.065986, 99.958736
0.317500, 0.065960, 0.065986, 99.959992
0.320000, 0.065961, 0.065986, 99.961214
0.322500, 0.065961, 0.065986, 99.962384
0.325000, 0.065962, 0.065986, 99.963463
0.327500, 0.065963, 0.065986, 99.964354
0.330000, 0.065963, 0.065986, 99.965044
0.332500, 0.065963, 0.065986, 99.965518
0.335000, 0.065964, 0.065986, 99.965774
0.337500, 0.065964, 0.065986, 99.965810
0.340000, 0.065964, 0.065986, 99.965630
0.342500, 0.065963, 0.065986, 99.965253
0.345000, 0.065963, 0.065986, 99.964716
0.347500, 0.065963, 0.065986, 99.964031
0.350000, 0.065962, 0.065986, 99.963189
0.352500, 0.065961, 0.065986, 99.962196
0.355000, 0.065961, 0.065986, 99.961069
0.357500, 0.065960, 0.065986, 99.959828
0.360000, 0.065959, 0.065986, 99.958499
0.362500, 0.065958, 0.065986, 99.957127
0.365000, 0.065957, 0.065986, 99.955744
0.367500, 0.065956, 0.065986, 99.954296
0.370000, 0.065955, 0.065986, 99.952773
0.372500, 0.065954, 0.065986, 99.951187
0.375000, 0.065953, 0.065986, 99.949561
0.377500, 0.065952, 0.065986, 99.947930
0.380000, 0.065951, 0.065986, 99.946320
0.382500, 0.065950, 0.065986, 99.944762
0.385000, 0.065949, 0.065986, 99.943270
0.387500, 0.065948, 0.065986, 99.941814
0.390000, 0.065947, 0.065986, 99.940438
0.392500, 0.065946, 0.065986, 99.939203
0.395000, 0.065945, 0.065986, 99.938118
0.397500, 0.065945, 0.065986, 99.937194
0.400000, 0.065944, 0.065986, 99.936440
0.402500, 0.065944, 0.065986, 99.935856
0.405000, 0.065944, 0.065986, 99.935422
0.407500, 0.065943, 0.065986, 99.935106
0.410000, 0.065943, 0.065986, 99.934904
0.412500, 0.065943, 0.065986, 99.934793
0.415000, 0.065943, 0.065986, 99.934798
0.417500, 0.065943, 0.065986, 99.934973
0.420000, 0.065944, 0.065986, 99.935350
0.422500, 0.065944, 0.065986, 99.935929
0.425000, 0.065944, 0.065986, 99.936644
0.427500, 0.065945, 0.065986, 99.937492
0.430000, 0.065946, 0.065986, 99.938484
0.432500, 0.065946, 0.065986, 99.939570
0.435000, 0.065947, 0.065986, 99.940685
0.437500, 0.065948, 0.065986, 99.941863
0.440000, 0.065949, 0.065986, 99.943115
0.442500, 0.065950, 0.065986, 99.944439
0.445000, 0.065950, 0.065986, 99.945830
0.447500, 0.065951, 0.065986, 99.947287
0.450000, 0.065952, 0.065986, 99.948813
0.452500, 0.065954, 0.065986, 99.950473
0.455000, 0.065955, 0.065986, 99.952287
0.457500, 0.065956, 0.065986, 99.954231
0.460000, 0.065957, 0.065986, 99.956222
0.462500, 0.065959, 0.065986, 99.958226
0.465000, 0.065960, 0.065986, 99.960197
0.467500, 0.065961, 0.065986, 99.962100
0.470000, 0.065962, 0.065986, 99.963901
0.472500, 0.065964, 0.065986, 99.965609
0.475000, 0.065965, 0.065986, 99.967202
0.477500, 0.065966, 0.065986, 99.968579
0.480000, 0.065966, 0.065986, 99.969656
0.482500, 0.065967, 0.065986, 99.970419
0.485000, 0.065967, 0.065986, 99.970828
0.487500, 0.065967, 0.065986, 99.970902
0.490000, 0.065967, 0.065986, 99.970681
0.492500, 0.065967, 0.065986, 99.970215
0.495000, 0.065966, 0.065986, 99.969513
0.497500, 0.065966, 0.065986, 99.968612
0.500000, 0.065965, 0.065986, 99.967564
0.502500, 0.065964, 0.065986, 99.966340
0.505000, 0.065963, 0.065986, 99.964911
0.507500, 0.065962, 0.065986, 99.963301
0.510000, 0.065961, 0.065986, 99.961537
0.512500, 0.065960, 0.065986, 99.959628
0.515000, 0.065958, 0.065986, 99.957612
0.517500, 0.065957, 0.065986, 99.955523
0.520000, 0.065955, 0.065986, 99.953386
0.522500, 0.065954, 0.065986, 99.951211
0.525000, 0.065953, 0.065986, 99.949011
0.527500, 0.065951, 0.065986, 99.946800
0.530000, 0.065950, 0.065986, 99.944632
0.532500, 0.065948, 0.065986, 99.942604
0.535000, 0.065947, 0.065986, 99.940709
0.537500, 0.065946, 0.065986, 99.938927
0.540000, 0.065945, 0.065986, 99.937261
0.542500, 0.065944, 0.065986, 99.935709
0.545000, 0.065943, 0.065986, 99.934295
0.547500, 0.065942, 0.065986, 99.933085
0.550000, 0.065941, 0.065986, 99.932086
0.552500, 0.065941, 0.065986, 99.931299
0.555000, 0.065941, 0.065986, 99.930722
0.557500, 0.065940, 0.065986, 99.930333
0.560000, 0.065940, 0.065986, 99.930176
0.562500, 0.065940, 0.065986, 99.930208
0.565000, 0.065940, 0.065986, 99.930369
0.567500, 0.065940, 0.065986, 99.930645
0.570000, 0.065941, 0.065986, 99.931016
0.572500, 0.065941, 0.065986, 99.931492
0.575000, 0.065941, 0.065986, 99.932122
0.577500, 0.065942, 0.065986, 99.932921
0.580000, 0.065943, 0.065986, 99.933858
0.582500, 0.065943, 0.065986, 99.934858
0.585000, 0.065944, 0.065986, 99.935889
0.587500, 0.065945, 0.065986, 99.936940
0.590000, 0.065945, 0.065986, 99.938017
0.592500, 0.065946, 0.065986, 99.939121
0.595000, 0.065947, 0.065986, 99.940238
0.597500, 0.065948, 0.065986, 99.941333
0.600000, 0.065948, 0.065986, 99.942400
0.602500, 0.065949, 0.065986, 99.943487
0.605000, 0.065950, 0.065986, 99.944580
0.607500, 0.065950, 0.065986, 99.945658
0.610000, 0.065951, 0.065986, 99.946707
0.612500, 0.065952, 0.065986, 99.947707
0.615000, 0.065952, 0.065986, 99.948686
0.617500, 0.065953, 0.065986, 99.949685
0.620000, 0.065954, 0.065986, 99.950683
0.622500, 0.065954, 0.065986, 99.951665
0.625000, 0.065955, 0.065986, 99.952606
0.627500, 0.065956, 0.065986, 99.953510
0.630000, 0.065956, 0.065986, 99.954396
0.632500, 0.065957, 0.065986, 99.955235
0.635000, 0.065957, 0.065986, 99.955914
0.637500, 0.065957, 0.065986, 99.956393
0.640000, 0.065958, 0.065986, 99.956653
0.642500, 0.065958, 0.065986, 99.956704
0.645000, 0.065958, 0.065986, 99.956577
0.647500, 0.065957, 0.065986, 99.956309
0.650000, 0.065957, 0.065986, 99.955863
0.652500, 0.065957, 0.065986, 99.955244
0.655000, 0.065956, 0.065986, 99.954459
0.657500, 0.065956, 0.065986, 99.953503
0.660000, 0.065955, 0.065986, 99.952418
0.662500, 0.065954, 0.065986, 99.951239
0.665000, 0.065953, 0.065986, 99.950017
0.667500, 0.065952, 0.065986, 99.948728
0.670000, 0.065952, 0.065986, 99.947367
0.672500, 0.065951, 0.065986, 99.945930
0.675000, 0.065950, 0.065986, 99.944463
0.677500, 0.065949, 0.065986, 99.943014
0.680000, 0.065948, 0.065986, 99.941577
0.682500, 0.065947, 0.065986, 99.940146
0.685000, 0.065946, 0.065986, 99.938725
0.687500, 0.065945, 0.065986, 99.937310
0.690000, 0.065944, 0.065986, 99.935959
0.692500, 0.065943, 0.065986, 99.934698
0.695000, 0.065942, 0.065986, 99.933480
0.697500, 0.065942, 0.065986, 99.932301
0.700000, 0.065941, 0.065986, 99.931190
0.702500, 0.065940, 0.065986, 99.930134
0.705000, 0.065939, 0.065986, 99.929121
0.707500, 0.065939, 0.065986, 99.928149
0.710000, 0.065938, 0.065986, 99.927234
0.712500, 0.065938, 0.065986, 99.926370
0.715000, 0.065937, 0.065986, 99.925531
0.717500, 0.065937, 0.065986, 99.924712
0.720000, 0.065936, 0.065986, 99.923901
0.722500, 0.065936, 0.065986, 99.923188
0.725000, 0.065935, 0.065986, 99.922583
0.727500, 0.065935, 0.065986, 99.922033
0.730000, 0.065934, 0.065986, 99.921536
0.732500, 0.065934, 0.065986, 99.921095
0.735000, 0.065934, 0.065986, 99.920741
0.737500, 0.065934, 0.065986, 99.920619
0.740000, 0.065934, 0.065986, 99.920748
0.742500, 0.065934, 0.065986, 99.921085
0.745000, 0.065934, 0.065986, 99.921535
0.747500, 0.065935, 0.065986, 99.922054
0.750000, 0.065935, 0.065986, 99.922640
0.752500, 0.065936, 0.065986, 99.923282
0.755000, 0.065936, 0.065986, 99.923968
0.757500, 0.065937, 0.065986, 99.924671
0.760000, 0.065937, 0.065986, 99.925362
0.762500, 0.065937, 0.065986, 99.926071
0.765000, 0.065938, 0.065986, 99.926829
0.767500, 0.065938, 0.065986, 99.927608
0.770000, 0.065939, 0.065986, 99.928387
0.772500, 0.065939, 0.065986, 99.929136
0.775000, 0.065940, 0.065986, 99.929851
0.777500, 0.065940, 0.065986, 99.930628
0.780000, 0.065941, 0.065986, 99.931448
0.782500, 0.065942, 0.065986, 99.932275
0.785000, 0.065942, 0.065986, 99.933124
0.787500, 0.065943, 0.065986, 99.933979
0.790000, 0.065943, 0.065986, 99.934805
0.792500, 0.065944, 0.065986, 99.935594
0.795000, 0.065944, 0.065986, 99.936354
0.797500, 0.065945, 0.065986, 99.937020
0.800000, 0.065945, 0.065986, 99.937571
0.802500, 0.065945, 0.065986, 99.938022
0.805000, 0.065946, 0.065986, 99.938338
0.807500, 0.065946, 0.065986, 99.938509
0.810000, 0.065946, 0.065986, 99.938523
0.812500, 0.065946, 0.065986, 99.938366
0.815000, 0.065945, 0.065986, 99.938025
0.817500, 0.065945, 0.065986, 99.937511
0.820000, 0.065945, 0.065986, 99.936881
0.822500, 0.065944, 0.065986, 99.936190
0.825000, 0.065944, 0.065986, 99.935400
0.827500, 0.065943, 0.065986, 99.934472
0.830000, 0.065942, 0.065986, 99.933344
0.832500, 0.065941, 0.065986, 99.932000
0.835000, 0.065940, 0.065986, 99.930476
0.837500, 0.065939, 0.065986, 99.928806
0.840000, 0.065938, 0.065986, 99.926999
0.842500, 0.065937, 0.065986, 99.925058
0.845000, 0.065935, 0.065986, 99.922996
0.847500, 0.065934, 0.065986, 99.920842
0.850000, 0.065933, 0.065986, 99.918707
0.852500, 0.065931, 0.065986, 99.916711
0.855000, 0.065930, 0.065986, 99.914874
0.857500, 0.065929, 0.065986, 99.913190
0.860000, 0.065928, 0.065986, 99.911653
0.862500, 0.065927, 0.065986, 99.910259
0.865000, 0.065926, 0.065986, 99.908984
0.867500, 0.065925, 0.065986, 99.907826
0.870000, 0.065925, 0.065986, 99.906776
0.872500, 0.065924, 0.065986, 99.905838
0.875000, 0.065924, 0.065986, 99.904971
0.877500, 0.065923, 0.065986, 99.904134
0.880000, 0.065922, 0.065986, 99.903320
0.882500, 0.065922, 0.065986, 99.902529
0.885000, 0.065921, 0.065986, 99.901840
0.887500, 0.065921, 0.065986, 99.901294
0.890000, 0.065921, 0.065986, 99.900898
0.892500, 0.065921, 0.065986, 99.900625
0.895000, 0.065921, 0.065986, 99.900480
0.897500, 0.065921, 0.065986, 99.900527
0.900000, 0.065921, 0.065986, 99.900799
0.902500, 0.065921, 0.065986, 99.901266
0.905000, 0.065922, 0.065986, 99.901899
0.907500, 0.065922, 0.065986, 99.902665
0.910000, 0.065923, 0.065986, 99.903505
0.912500, 0.065923, 0.065986, 99.904353
0.915000, 0.065924, 0.065986, 99.905177
0.917500, 0.065924, 0.065986, 99.905950
0.920000, 0.065925, 0.065986, 99.906649
0.922500, 0.065925, 0.065986, 99.907260
0.925000, 0.065925, 0.065986, 99.907821
0.927500, 0.065926, 0.065986, 99.908360
0.930000, 0.065926, 0.065986, 99.908839
0.932500, 0.065926, 0.065986, 99.909239
0.935000, 0.065927, 0.065986, 99.909531
0.937500, 0.065927, 0.065986, 99.909737
0.940000, 0.065927, 0.065986, 99.909993
0.942500, 0.065927, 0.065986, 99.910342
0.945000, 0.065927, 0.065986, 99.910763
0.947500, 0.065928, 0.065986, 99.911244
0.950000, 0.065928, 0.065986, 99.911757
0.952500, 0.065928, 0.065986, 99.912304
0.955000, 0.065929, 0.065986, 99.912876
0.957500, 0.065929, 0.065986, 99.913478
0.960000, 0.065930, 0.065986, 99.914097
0.962500, 0.065930, 0.065986, 99.914628
0.965000, 0.065930, 0.065986, 99.915009
0.967500, 0.065930, 0.065986, 99.915233
0.970000, 0.065930, 0.065986, 99.915279
0.972500, 0.065930, 0.065986, 99.915153
0.975000, 0.065930, 0.065986, 99.914889
0.977500, 0.065930, 0.065986, 99.914495
0.980000, 0.065929, 0.065986, 99.913964
0.982500, 0.065929, 0.065986, 99.913354
0.985000, 0.065929, 0.065986, 99.912641
0.987500, 0.065928, 0.065986, 99.911815
0.990000, 0.065927, 0.065986, 99.910861
0.992500, 0.065927, 0.065986, 99.909774
0.995000, 0.065926, 0.065986, 99.908569
0.997500, 0.065925, 0.065986, 99.907250
1.000000, 0.065924, 0.065986, 99.905935
1.002500, 0.065923, 0.065986, 99.904430
1.005000, 0.065922, 0.065986, 99.902857
1.007500, 0.065921, 0.065986, 99.901281
1.010000, 0.065920, 0.065986, 99.899780
1.012500, 0.065919, 0.065986, 99.898442
1.015000, 0.065918, 0.065986, 99.897252
1.017500, 0.065918, 0.065986, 99.896168
1.020000, 0.065917, 0.065986, 99.895170
1.022500, 0.065916, 0.065986, 99.894249
1.025000, 0.065916, 0.065986, 99.893510
1.027500, 0.065915, 0.065986, 99.892636
1.030000, 0.065915, 0.065986, 99.891803
1.032500, 0.065914, 0.065986, 99.890997
1.035000, 0.065914, 0.065986, 99.890213
1.037500, 0.065913, 0.065986, 99.889455
1.040000, 0.065913, 0.065986, 99.888709
1.042500, 0.065912, 0.065986, 99.887975
1.045000, 0.065912, 0.065986, 99.887237
1.047500, 0.065911, 0.065986, 99.886566
1.050000, 0.065911, 0.065986, 99.886022
1.052500, 0.065911, 0.065986, 99.885629
1.055000, 0.065911, 0.065986, 99.885425
1.057500, 0.065911, 0.065986, 99.885352
1.060000, 0.065911, 0.065986, 99.885384
1.062500, 0.065911, 0.065986, 99.885568
1.065000, 0.065911, 0.065986, 99.885936
1.067500, 0.065911, 0.065986, 99.886452
1.070000, 0.065912, 0.065986, 99.887091
1.072500, 0.065912, 0.065986, 99.887820
1.075000, 0.065913, 0.065986, 99.888579
1.077500, 0.065913, 0.065986, 99.889309
1.080000, 0.065914, 0.065986, 99.889972
1.082500, 0.065914, 0.065986, 99.890532
1.085000, 0.065914, 0.065986, 99.890967
1.087500, 0.065915, 0.065986, 99.891325
1.090000, 0.065915, 0.065986, 99.891638
1.092500, 0.065915, 0.065986, 99.891882
1.095000, 0.065915, 0.065986, 99.892026
1.097500, 0.065915, 0.065986, 99.892056
1.100000, 0.065915, 0.065986, 99.892081
1.102500, 0.065915, 0.065986, 99.892291
1.105000, 0.065915, 0.065986, 99.892717
1.107500, 0.065916, 0.065986, 99.893330
1.110000, 0.065916, 0.065986, 99.894044
1.112500, 0.065917, 0.065986, 99.894817
1.115000, 0.065917, 0.065986, 99.895622
1.117500, 0.065918, 0.065986, 99.896503
1.120000, 0.065919, 0.065986, 99.897408
1.122500, 0.065919, 0.065986, 99.898303
1.125000, 0.065920, 0.065986, 99.899157
1.127500, 0.065920, 0.065986, 99.899909
1.130000, 0.065921, 0.065986, 99.900529
1.132500, 0.065921, 0.065986, 99.901004
1.135000, 0.065921, 0.065986, 99.901353
1.137500, 0.065921, 0.065986, 99.901554
1.140000, 0.065921, 0.065986, 99.901574
1.142500, 0.065921, 0.065986, 99.901447
1.145000, 0.065921, 0.065986, 99.901205
1.147500, 0.065921, 0.065986, 99.900834
1.150000, 0.065920, 0.065986, 99.900317
1.152500, 0.065920, 0.065986, 99.899642
1.155000, 0.065919, 0.065986, 99.898800
1.157500, 0.065919, 0.065986, 99.897847
1.160000, 0.065918, 0.065986, 99.896799
1.162500, 0.065917, 0.065986, 99.895650
1.165000, 0.065917, 0.065986, 99.894400
1.167500, 0.065916, 0.065986, 99.893113
1.170000, 0.065915, 0.065986, 99.891815
1.172500, 0.065914, 0.065986, 99.890619
1.175000, 0.065913, 0.065986, 99.889563
1.177500, 0.065913, 0.065986, 99.888624
1.180000, 0.065912, 0.065986, 99.887760
1.182500, 0.065912, 0.065986, 99.886939
1.185000, 0.065911, 0.065986, 99.886157
1.187500, 0.065911, 0.065986, 99.885405
1.190000, 0.065910, 0.065986, 99.884672
1.192500, 0.065910, 0.065986, 99.883957
1.195000, 0.065909, 0.065986, 99.883254
1.197500, 0.065909, 0.065986, 99.882550
1.200000, 0.065908, 0.065986, 99.881865
1.202500, 0.065908, 0.065986, 99.881192
1.205000, 0.065907, 0.065986, 99.880524
1.207500, 0.065907, 0.065986, 99.879823
1.210000, 0.065906, 0.065986, 99.879101
1.212500, 0.065906, 0.065986, 99.878441
1.215000, 0.065906, 0.065986, 99.877912
1.217500, 0.065905, 0.065986, 99.877543
1.220000, 0.065905, 0.065986, 99.877306
1.222500, 0.065905, 0.065986, 99.877169
1.225000, 0.065905, 0.065986, 99.877160
1.227500, 0.065905, 0.065986, 99.877311
1.230000, 0.065905, 0.065986, 99.877602
1.232500, 0.065906, 0.065986, 99.878002
1.235000, 0.065906, 0.065986, 99.878479
1.237500, 0.065906, 0.065986, 99.878988
1.240000, 0.065907, 0.065986, 99.879460
1.242500, 0.065907, 0.065986, 99.879853
1.245000, 0.065907, 0.065986, 99.880136
1.247500, 0.065907, 0.065986, 99.880299
1.250000, 0.065907, 0.065986, 99.880346
1.252500, 0.065907, 0.065986, 99.880336
1.255000, 0.065907, 0.065986, 99.880282
1.257500, 0.065907, 0.065986, 99.880220
1.260000, 0.065907, 0.065986, 99.880165
1.262500, 0.065907, 0.065986, 99.880182
1.265000, 0.065907, 0.065986, 99.880421
1.267500, 0.065908, 0.065986, 99.880897
1.270000, 0.065908, 0.065986, 99.881572
1.272500, 0.065909, 0.065986, 99.882387
1.275000, 0.065909, 0.065986, 99.883285
1.277500, 0.065910, 0.065986, 99.884302
1.280000, 0.065911, 0.065986, 99.885427
1.282500, 0.065911, 0.065986, 99.886632
1.285000, 0.065912, 0.065986, 99.887890
1.287500, 0.065913, 0.065986, 99.889149
1.290000, 0.065914, 0.065986, 99.890322
1.292500, 0.065915, 0.065986, 99.891372
1.295000, 0.065915, 0.065986, 99.892288
1.297500, 0.065916, 0.065986, 99.893038
1.300000, 0.065916, 0.065986, 99.893598
1.302500, 0.065916, 0.065986, 99.893952
1.305000, 0.065916, 0.065986, 99.894122
1.307500, 0.065916, 0.065986, 99.894143
1.310000, 0.065916, 0.065986, 99.894008
1.312500, 0.065916, 0.065986, 99.893705
1.315000, 0.065916, 0.065986, 99.893221
1.317500, 0.065915, 0.065986, 99.892556
1.320000, 0.065915, 0.065986, 99.891749
1.322500, 0.065914, 0.065986, 99.890844
1.325000, 0.065914, 0.065986, 99.889843
1.327500, 0.065913, 0.065986, 99.888806
1.330000, 0.065912, 0.065986, 99.887739
1.332500, 0.065911, 0.065986, 99.886654
1.335000, 0.065911, 0.065986, 99.885656
1.337500, 0.065910, 0.065986, 99.884763
1.340000, 0.065910, 0.065986, 99.883963
1.342500, 0.065909, 0.065986, 99.883226
1.345000, 0.065909, 0.065986, 99.882535
1.347500, 0.065908, 0.065986, 99.881898
1.350000, 0.065908, 0.065986, 99.881310
1.352500, 0.065908, 0.065986, 99.880741
1.355000, 0.065907, 0.065986, 99.880166
1.357500, 0.065907, 0.065986, 99.879583
1.360000, 0.065906, 0.065986, 99.878928
1.362500, 0.065906, 0.065986, 99.878205
1.365000, 0.065905, 0.065986, 99.877432
1.367500, 0.065905, 0.065986, 99.876621
1.370000, 0.065904, 0.065986, 99.875765
1.372500, 0.065904, 0.065986, 99.874852
1.375000, 0.065903, 0.065986, 99.873892
1.377500, 0.065902, 0.065986, 99.873037
1.380000, 0.065902, 0.065986, 99.872356
1.382500, 0.065902, 0.065986, 99.871807
1.385000, 0.065901, 0.065986, 99.871384
1.387500, 0.065901, 0.065986, 99.871067
1.390000, 0.065901, 0.065986, 99.870886
1.392500, 0.065901, 0.065986, 99.870843
1.395000, 0.065901, 0.065986, 99.870910
1.397500, 0.065901, 0.065986, 99.871047
1.400000, 0.065901, 0.065986, 99.871220
1.402500, 0.065901, 0.065986, 99.871404
1.405000, 0.065901, 0.065986, 99.871544
1.407500, 0.065902, 0.065986, 99.871609
1.410000, 0.065902, 0.065986, 99.871578
1.412500, 0.065901, 0.065986, 99.871452
1.415000, 0.065901, 0.065986, 99.871317
1.417500, 0.065901, 0.065986, 99.871254
1.420000, 0.065901, 0.065986, 99.871247
1.422500, 0.065901, 0.065986, 99.871314
1.425000, 0.065901, 0.065986, 99.871446
1.427500, 0.065902, 0.065986, 99.871716
1.430000, 0.065902, 0.065986, 99.872230
1.432500, 0.065902, 0.065986, 99.872970
1.435000, 0.065903, 0.065986, 99.873888
1.437500, 0.065904, 0.065986, 99.874919
1.440000, 0.065905, 0.065986, 99.876126
1.442500, 0.065905, 0.065986, 99.877476
1.445000, 0.065906, 0.065986, 99.878923
1.447500, 0.065907, 0.065986, 99.880410
1.450000, 0.065908, 0.065986, 99.881907
1.452500, 0.065909, 0.065986, 99.883343
1.455000, 0.065910, 0.065986, 99.884647
1.457500, 0.065911, 0.065986, 99.885804
1.460000, 0.065912, 0.065986, 99.886796
1.462500, 0.065912, 0.065986, 99.887589
1.465000, 0.065912, 0.065986, 99.888163
1.467500, 0.065913, 0.065986, 99.888516
1.470000, 0.065913, 0.065986, 99.888699
1.472500, 0.065913, 0.065986, 99.888718
1.475000, 0.065913, 0.065986, 99.888564
1.477500, 0.065912, 0.065986, 99.888221
1.480000, 0.065912, 0.065986, 99.887677
1.482500, 0.065912, 0.065986, 99.886956
1.485000, 0.065911, 0.065986, 99.886132
1.487500, 0.065911, 0.065986, 99.885236
1.490000, 0.065910, 0.065986, 99.884308
1.492500, 0.065909, 0.065986, 99.883353
1.495000, 0.065909, 0.065986, 99.882344
1.497500, 0.065908, 0.065986, 99.881375
1.500000, 0.065907, 0.065986, 99.880514
1.502500, 0.065907, 0.065986, 99.879762
1.505000, 0.065906, 0.065986, 99.879104
1.507500, 0.065906, 0.065986, 99.878508
1.510000, 0.065906, 0.065986, 99.877949
1.512500, 0.065905, 0.065986, 99.877404
1.515000, 0.065905, 0.065986, 99.876851
1.517500, 0.065905, 0.065986, 99.876274
1.520000, 0.065904, 0.065986, 99.875665
1.522500, 0.065904, 0.065986, 99.875012
1.525000, 0.065903, 0.065986, 99.874293
1.527500, 0.065903, 0.065986, 99.873513
1.530000, 0.065902, 0.065986, 99.872673
1.532500, 0.065902, 0.065986, 99.871783
1.535000, 0.065901, 0.065986, 99.870835
1.537500, 0.065900, 0.065986, 99.869805
1.540000, 0.065900, 0.065986, 99.868748
1.542500, 0.065899, 0.065986, 99.867865
1.545000, 0.065899, 0.065986, 99.867126
1.547500, 0.065898, 0.065986, 99.866515
1.550000, 0.065898, 0.065986, 99.866009
1.552500, 0.065898, 0.065986, 99.865592
1.555000, 0.065897, 0.065986, 99.865312
1.557500, 0.065897, 0.065986, 99.865171
1.560000, 0.065897, 0.065986, 99.865125
1.562500, 0.065897, 0.065986, 99.865148
1.565000, 0.065897, 0.065986, 99.865210
1.567500, 0.065897, 0.065986, 99.865289
1.570000, 0.065897, 0.065986, 99.865339
1.572500, 0.065897, 0.065986, 99.865332
1.575000, 0.065897, 0.065986, 99.865252
1.577500, 0.065897, 0.065986, 99.865131
1.580000, 0.065897, 0.065986, 99.865054
1.582500, 0.065897, 0.065986, 99.865055
1.585000, 0.065897, 0.065986, 99.865131
1.587500, 0.065897, 0.065986, 99.865288
1.590000, 0.065898, 0.065986, 99.865518
1.592500, 0.065898, 0.065986, 99.865894
1.595000, 0.065898, 0.065986, 99.866506
1.597500, 0.065899, 0.065986, 99.867323
1.600000, 0.065899, 0.065986, 99.868323
1.602500, 0.065900, 0.065986, 99.869532
1.605000, 0.065901, 0.065986, 99.870915
1.607500, 0.065902, 0.065986, 99.872410
1.610000, 0.065903, 0.065986, 99.873977
1.612500, 0.065904, 0.065986, 99.875559
1.615000, 0.065905, 0.065986, 99.877097
1.617500, 0.065906, 0.065986, 99.878548
1.620000, 0.065907, 0.065986, 99.879845
1.622500, 0.065908, 0.065986, 99.880978
1.625000, 0.065908, 0.065986, 99.881914
1.627500, 0.065909, 0.065986, 99.882632
1.630000, 0.065909, 0.065986, 99.883118
1.632500, 0.065909, 0.065986, 99.883397
1.635000, 0.065909, 0.065986, 99.883518
1.637500, 0.065909, 0.065986, 99.883498
1.640000, 0.065909, 0.065986, 99.883327
1.642500, 0.065909, 0.065986, 99.882970
1.645000, 0.065909, 0.065986, 99.882424
1.647500, 0.065908, 0.065986, 99.881731
1.650000, 0.065908, 0.065986, 99.880961
1.652500, 0.065907, 0.065986, 99.880205
1.655000, 0.065907, 0.065986, 99.879423
1.657500, 0.065906, 0.065986, 99.878543
1.660000, 0.065905, 0.065986, 99.877603
1.662500, 0.065905, 0.065986, 99.876738
1.665000, 0.065904, 0.065986, 99.876009
1.667500, 0.065904, 0.065986, 99.875400
1.670000, 0.065904, 0.065986, 99.874859
1.672500, 0.065903, 0.065986, 99.874361
1.675000, 0.065903, 0.065986, 99.873884
1.677500, 0.065903, 0.065986, 99.873403
1.680000, 0.065902, 0.065986, 99.872906
1.682500, 0.065902, 0.065986, 99.872384
1.685000, 0.065902, 0.065986, 99.871815
1.687500, 0.065901, 0.065986, 99.871189
1.690000, 0.065901, 0.065986, 99.870484
1.692500, 0.065900, 0.065986, 99.869695
1.695000, 0.065900, 0.065986, 99.868844
1.697500, 0.065899, 0.065986, 99.867952
1.700000, 0.065898, 0.065986, 99.867007
1.702500, 0.065898, 0.065986, 99.865988
1.705000, 0.065897, 0.065986, 99.864948
1.707500, 0.065897, 0.065986, 99.864040
1.710000, 0.065896, 0.065986, 99.863255
1.712500, 0.065896, 0.065986, 99.862577
1.715000, 0.065895, 0.065986, 99.862004
1.717500, 0.065895, 0.065986, 99.861523
1.720000, 0.065895, 0.065986, 99.861183
1.722500, 0.065894, 0.065986, 99.860955
1.725000, 0.065894, 0.065986, 99.860816
1.727500, 0.065894, 0.065986, 99.860692
1.730000, 0.065894, 0.065986, 99.860664
1.732500, 0.065894, 0.065986, 99.860662
1.735000, 0.065894, 0.065986, 99.860645
1.737500, 0.065894, 0.065986, 99.860566
1.740000, 0.065894, 0.065986, 99.860445
1.742500, 0.065894, 0.065986, 99.860291
1.745000, 0.065894, 0.065986, 99.860194
1.747500, 0.065894, 0.065986, 99.860175
1.750000, 0.065894, 0.065986, 99.860230
1.752500, 0.065894, 0.065986, 99.860369
1.755000, 0.065894, 0.065986, 99.860575
1.757500, 0.065894, 0.065986, 99.860905
1.760000, 0.065895, 0.065986, 99.861470
1.762500, 0.065895, 0.065986, 99.862259
1.765000, 0.065896, 0.065986, 99.863275
1.767500, 0.065897, 0.065986, 99.864521
1.770000, 0.065898, 0.065986, 99.865932
1.772500, 0.065899, 0.065986, 99.867452
1.775000, 0.065900, 0.065986, 99.869030
1.777500, 0.065901, 0.065986, 99.870606
1.780000, 0.065902, 0.065986, 99.872132
1.782500, 0.065903, 0.065986, 99.873576
1.785000, 0.065904, 0.065986, 99.874882
1.787500, 0.065904, 0.065986, 99.876018
1.790000, 0.065905, 0.065986, 99.876961
1.792500, 0.065906, 0.065986, 99.877716
1.795000, 0.065906, 0.065986, 99.878275
1.797500, 0.065906, 0.065986, 99.878640
1.800000, 0.065906, 0.065986, 99.878881
1.802500, 0.065906, 0.065986, 99.878964
1.805000, 0.065906, 0.065986, 99.878877
1.807500, 0.065906, 0.065986, 99.878615
1.810000, 0.065906, 0.065986, 99.878158
1.812500, 0.065905, 0.065986, 99.877556
1.815000, 0.065905, 0.065986, 99.876884
1.817500, 0.065905, 0.065986, 99.876185
1.820000, 0.065904, 0.065986, 99.875444
1.822500, 0.065904, 0.065986, 99.874650
1.825000, 0.065903, 0.065986, 99.873804
1.827500, 0.065902, 0.065986, 99.873032
1.830000, 0.065902, 0.065986, 99.872395
1.832500, 0.065902, 0.065986, 99.871874
1.835000, 0.065901, 0.065986, 99.871427
1.837500, 0.065901, 0.065986, 99.871026
1.840000, 0.065901, 0.065986, 99.870639
1.842500, 0.065901, 0.065986, 99.870245
1.845000, 0.065900, 0.065986, 99.869836
1.847500, 0.065900, 0.065986, 99.869396
1.850000, 0.065900, 0.065986, 99.868932
1.852500, 0.065899, 0.065986, 99.868421
1.855000, 0.065899, 0.065986, 99.867834
1.857500, 0.065899, 0.065986, 99.867159
1.860000, 0.065898, 0.065986, 99.866406
1.862500, 0.065898, 0.065986, 99.865569
1.865000, 0.065897, 0.065986, 99.864626
1.867500, 0.065896, 0.065986, 99.863580
1.870000, 0.065896, 0.065986, 99.862483
1.872500, 0.065895, 0.065986, 99.861489
1.875000, 0.065894, 0.065986, 99.860626
1.877500, 0.065894, 0.065986, 99.859884
1.880000, 0.065893, 0.065986, 99.859246
1.882500, 0.065893, 0.065986, 99.858686
1.885000, 0.065893, 0.065986, 99.858214
1.887500, 0.065892, 0.065986, 99.857858
1.890000, 0.065892, 0.065986, 99.857594
1.892500, 0.065892, 0.065986, 99.857411
1.895000, 0.065892, 0.065986, 99.857281
1.897500, 0.065892, 0.065986, 99.857177
1.900000, 0.065892, 0.065986, 99.857052
1.902500, 0.065892, 0.065986, 99.856871
1.905000, 0.065892, 0.065986, 99.856672
1.907500, 0.065892, 0.065986, 99.856458
1.910000, 0.065891, 0.065986, 99.856272
1.912500, 0.065891, 0.065986, 99.856168
1.915000, 0.065891, 0.065986, 99.856150
1.917500, 0.065891, 0.065986, 99.856229
1.920000, 0.065891, 0.065986, 99.856378
1.922500, 0.065892, 0.065986, 99.856604
1.925000, 0.065892, 0.065986, 99.857047
1.927500, 0.065892, 0.065986, 99.857753
1.930000, 0.065893, 0.065986, 99.858702
1.932500, 0.065894, 0.065986, 99.859898
1.935000, 0.065895, 0.065986, 99.861275
1.937500, 0.065896, 0.065986, 99.862784
1.940000, 0.065897, 0.065986, 99.864357
1.942500, 0.065898, 0.065986, 99.865947
1.945000, 0.065899, 0.065986, 99.867509
1.947500, 0.065900, 0.065986, 99.869017
1.950000, 0.065901, 0.065986, 99.870412
1.952500, 0.065902, 0.065986, 99.871671
1.955000, 0.065902, 0.065986, 99.872762
1.957500, 0.065903, 0.065986, 99.873672
1.960000, 0.065903, 0.065986, 99.874376
1.962500, 0.065904, 0.065986, 99.874877
1.965000, 0.065904, 0.065986, 99.875226
1.967500, 0.065904, 0.065986, 99.875429
1.970000, 0.065904, 0.065986, 99.875459
1.972500, 0.065904, 0.065986, 99.875304
1.975000, 0.065904, 0.065986, 99.874948
1.977500, 0.065903, 0.065986, 99.874401
1.980000, 0.065903, 0.065986, 99.873781
1.982500, 0.065903, 0.065986, 99.873135
1.985000, 0.065902, 0.065986, 99.872453
1.987500, 0.065902, 0.065986, 99.871720
1.990000, 0.065901, 0.065986, 99.870945
1.992500, 0.065901, 0.065986, 99.870213
1.995000, 0.065900, 0.065986, 99.869619
1.997500, 0.065900, 0.065986, 99.869152
2.000000, 0.065900, 0.065986, 99.868776
2.002500, 0.065899, 0.065986, 99.868454
2.005000, 0.065899, 0.065986, 99.868160
2.007500, 0.065899, 0.065986, 99.867873
2.010000, 0.065899, 0.065986, 99.867574
2.012500, 0.065899, 0.065986, 99.867245
2.015000, 0.065898, 0.065986, 99.866875
2.017500, 0.065898, 0.065986, 99.866452
2.020000, 0.065898, 0.065986, 99.865943
2.022500, 0.065897, 0.065986, 99.865331
2.025000, 0.065897, 0.065986, 99.864615
2.027500, 0.065896, 0.065986, 99.863797
2.030000, 0.065896, 0.065986, 99.862869
2.032500, 0.065895, 0.065986, 99.861826
2.035000, 0.065894, 0.065986, 99.860699
2.037500, 0.065894, 0.065986, 99.859604
2.040000, 0.065893, 0.065986, 99.858639
2.042500, 0.065892, 0.065986, 99.857800
2.045000, 0.065892, 0.065986, 99.857071
2.047500, 0.065892, 0.065986, 99.856422
2.050000, 0.065891, 0.065986, 99.855810
2.052500, 0.065891, 0.065986, 99.855296
2.055000, 0.065890, 0.065986, 99.854892
2.057500, 0.065890, 0.065986, 99.854584
2.060000, 0.065890, 0.065986, 99.854346
2.062500, 0.065890, 0.065986, 99.854151
2.065000, 0.065890, 0.065986, 99.853949
2.067500, 0.065890, 0.065986, 99.853717
2.070000, 0.065890, 0.065986, 99.853470
2.072500, 0.065889, 0.065986, 99.853223
2.075000, 0.065889, 0.065986, 99.852990
2.077500, 0.065889, 0.065986, 99.852815
2.080000, 0.065889, 0.065986, 99.852733
2.082500, 0.065889, 0.065986, 99.852759
2.085000, 0.065889, 0.065986, 99.852870
2.087500, 0.065889, 0.065986, 99.853037
2.090000, 0.065889, 0.065986, 99.853345
2.092500, 0.065890, 0.065986, 99.853931
2.095000, 0.065890, 0.065986, 99.854788
2.097500, 0.065891, 0.065986, 99.855909
2.100000, 0.065892, 0.065986, 99.857246
2.102500, 0.065893, 0.065986, 99.858739
2.105000, 0.065894, 0.065986, 99.860325
2.107500, 0.065895, 0.065986, 99.861955
2.110000, 0.065896, 0.065986, 99.863582
2.112500, 0.065897, 0.065986, 99.865176
2.115000, 0.065898, 0.065986, 99.866678
2.117500, 0.065899, 0.065986, 99.868056
2.120000, 0.065900, 0.065986, 99.869284
2.122500, 0.065901, 0.065986, 99.870342
2.125000, 0.065901, 0.065986, 99.871210
2.127500, 0.065902, 0.065986, 99.871864
2.130000, 0.065902, 0.065986, 99.872317
2.132500, 0.065902, 0.065986, 99.872612
2.135000, 0.065902, 0.065986, 99.872742
2.137500, 0.065902, 0.065986, 99.872696
2.140000, 0.065902, 0.065986, 99.872463
2.142500, 0.065902, 0.065986, 99.872030
2.145000, 0.065901, 0.065986, 99.871463
2.147500, 0.065901, 0.065986, 99.870873
2.150000, 0.065901, 0.065986, 99.870262
2.152500, 0.065900, 0.065986, 99.869611
2.155000, 0.065900, 0.065986, 99.868916
2.157500, 0.065899, 0.065986, 99.868215
2.160000, 0.065899, 0.065986, 99.867644
2.162500, 0.065899, 0.065986, 99.867214
2.165000, 0.065898, 0.065986, 99.866880
2.167500, 0.065898, 0.065986, 99.866610
2.170000, 0.065898, 0.065986, 99.866369
2.172500, 0.065898, 0.065986, 99.866140
2.175000, 0.065898, 0.065986, 99.865923
2.177500, 0.065898, 0.065986, 99.865655
2.180000, 0.065897, 0.065986, 99.865342
2.182500, 0.065897, 0.065986, 99.865013
2.185000, 0.065897, 0.065986, 99.864552
2.187500, 0.065896, 0.065986, 99.863983
2.190000, 0.065896, 0.065986, 99.863308
2.192500, 0.065896, 0.065986, 99.862537
2.195000, 0.065895, 0.065986, 99.861648
2.197500, 0.065894, 0.065986, 99.860653
2.200000, 0.065894, 0.065986, 99.859568
2.202500, 0.065893, 0.065986, 99.858443
2.205000, 0.065892, 0.065986, 99.857364
2.207500, 0.065891, 0.065986, 99.856403
2.210000, 0.065891, 0.065986, 99.855553
2.212500, 0.065890, 0.065986, 99.854796
2.215000, 0.065890, 0.065986, 99.854093
2.217500, 0.065890, 0.065986, 99.853432
2.220000, 0.065889, 0.065986, 99.852883
2.222500, 0.065889, 0.065986, 99.852447
2.225000, 0.065889, 0.065986, 99.852101
2.227500, 0.065888, 0.065986, 99.851821
2.230000, 0.065888, 0.065986, 99.851574
2.232500, 0.065888, 0.065986, 99.851311
2.235000, 0.065888, 0.065986, 99.851038
2.237500, 0.065888, 0.065986, 99.850775
2.240000, 0.065888, 0.065986, 99.850531
2.242500, 0.065887, 0.065986, 99.850303
2.245000, 0.065887, 0.065986, 99.850165
2.247500, 0.065887, 0.065986, 99.850130
2.250000, 0.065887, 0.065986, 99.850209
2.252500, 0.065887, 0.065986, 99.850320
2.255000, 0.065888, 0.065986, 99.850546
2.257500, 0.065888, 0.065986, 99.850979
2.260000, 0.065888, 0.065986, 99.851701
2.262500, 0.065889, 0.065986, 99.852699
2.265000, 0.065890, 0.065986, 99.853958
2.267500, 0.065891, 0.065986, 99.855375
2.270000, 0.065892, 0.065986, 99.856930
2.272500, 0.065893, 0.065986, 99.858561
2.275000, 0.065894, 0.065986, 99.860371
2.277500, 0.065895, 0.065986, 99.862012
2.280000, 0.065896, 0.065986, 99.863573
2.282500, 0.065897, 0.065986, 99.865040
2.285000, 0.065898, 0.065986, 99.866383
2.287500, 0.065899, 0.065986, 99.867580
2.290000, 0.065900, 0.065986, 99.868599
2.292500, 0.065900, 0.065986, 99.869410
2.295000, 0.065900, 0.065986, 99.869996
2.297500, 0.065901, 0.065986, 99.870398
2.300000, 0.065901, 0.065986, 99.870647
2.302500, 0.065901, 0.065986, 99.870727
2.305000, 0.065901, 0.065986, 99.870626
2.307500, 0.065901, 0.065986, 99.870334
2.310000, 0.065900, 0.065986, 99.869850
2.312500, 0.065900, 0.065986, 99.869295
2.315000, 0.065900, 0.065986, 99.868728
2.317500, 0.065899, 0.065986, 99.868134
2.320000, 0.065899, 0.065986, 99.867512
2.322500, 0.065898, 0.065986, 99.866888
2.325000, 0.065898, 0.065986, 99.866285
2.327500, 0.065898, 0.065986, 99.865824
2.330000, 0.065897, 0.065986, 99.865494
2.332500, 0.065897, 0.065986, 99.865240
2.335000, 0.065897, 0.065986, 99.865030
2.337500, 0.065897, 0.065986, 99.864840
2.340000, 0.065897, 0.065986, 99.864652
2.342500, 0.065897, 0.065986, 99.864442
2.345000, 0.065897, 0.065986, 99.864193
2.347500, 0.065896, 0.065986, 99.863889
2.350000, 0.065896, 0.065986, 99.863512
2.352500, 0.065896, 0.065986, 99.863032
2.355000, 0.065895, 0.065986, 99.862446
2.357500, 0.065895, 0.065986, 99.861744
2.360000, 0.065894, 0.065986, 99.860923
2.362500, 0.065894, 0.065986, 99.859993
2.365000, 0.065893, 0.065986, 99.858950
2.367500, 0.065892, 0.065986, 99.857795
2.370000, 0.065892, 0.065986, 99.856615
2.372500, 0.065891, 0.065986, 99.855485
2.375000, 0.065890, 0.065986, 99.854483
2.377500, 0.065890, 0.065986, 99.853614
2.380000, 0.065889, 0.065986, 99.852837
2.382500, 0.065889, 0.065986, 99.852098
2.385000, 0.065888, 0.065986, 99.851408
2.387500, 0.065888, 0.065986, 99.850844
2.390000, 0.065888, 0.065986, 99.850397
2.392500, 0.065887, 0.065986, 99.850041
2.395000, 0.065887, 0.065986, 99.849751
2.397500, 0.065887, 0.065986, 99.849482
2.400000, 0.065887, 0.065986, 99.849198
2.402500, 0.065887, 0.065986, 99.848924
2.405000, 0.065886, 0.065986, 99.848668
2.407500, 0.065886, 0.065986, 99.848428
2.410000, 0.065886, 0.065986, 99.848210
2.412500, 0.065886, 0.065986, 99.848082
2.415000, 0.065886, 0.065986, 99.848070
2.417500, 0.065886, 0.065986, 99.848174
2.420000, 0.065886, 0.065986, 99.848356
2.422500, 0.065886, 0.065986, 99.848616
2.425000, 0.065887, 0.065986, 99.849151
2.427500, 0.065887, 0.065986, 99.849988
2.430000, 0.065888, 0.065986, 99.851063
2.432500, 0.065889, 0.065986, 99.852367
2.435000, 0.065890, 0.065986, 99.853859
2.437500, 0.065891, 0.065986, 99.855466
2.440000, 0.065892, 0.065986, 99.857137
2.442500, 0.065893, 0.065986, 99.858829
2.445000, 0.065894, 0.065986, 99.860498
2.447500, 0.065895, 0.065986, 99.862107
2.450000, 0.065896, 0.065986, 99.863614
2.452500, 0.065897, 0.065986, 99.864988
2.455000, 0.065898, 0.065986, 99.866197
2.457500, 0.065899, 0.065986, 99.867210
2.460000, 0.065899, 0.065986, 99.868005
2.462500, 0.065900, 0.065986, 99.868576
2.465000, 0.065900, 0.065986, 99.868967
2.467500, 0.065900, 0.065986, 99.869204
2.470000, 0.065900, 0.065986, 99.869271
2.472500, 0.065900, 0.065986, 99.869154
2.475000, 0.065900, 0.065986, 99.868844
2.477500, 0.065899, 0.065986, 99.868356
2.480000, 0.065899, 0.065986, 99.867824
2.482500, 0.065899, 0.065986, 99.867285
2.485000, 0.065898, 0.065986, 99.866722
2.487500, 0.065898, 0.065986, 99.866143
2.490000, 0.065898, 0.065986, 99.865552
2.492500, 0.065897, 0.065986, 99.865002
2.495000, 0.065897, 0.065986, 99.864589
2.497500, 0.065897, 0.065986, 99.864294
2.500000, 0.065897, 0.065986, 99.864073
2.502500, 0.065896, 0.065986, 99.863894
2.505000, 0.065896, 0.065986, 99.863730
2.507500, 0.065896, 0.065986, 99.863562
2.510000, 0.065896, 0.065986, 99.863367
2.512500, 0.065896, 0.065986, 99.863125
2.515000, 0.065896, 0.065986, 99.862824
2.517500, 0.065895, 0.065986, 99.862444
2.520000, 0.065895, 0.065986, 99.861965
2.522500, 0.065895, 0.065986, 99.861373
2.525000, 0.065894, 0.065986, 99.860651
2.527500, 0.065894, 0.065986, 99.859802
2.530000, 0.065893, 0.065986, 99.858838
2.532500, 0.065892, 0.065986, 99.857757
2.535000, 0.065892, 0.065986, 99.856569
2.537500, 0.065891, 0.065986, 99.855357
2.540000, 0.065890, 0.065986, 99.854216
2.542500, 0.065889, 0.065986, 99.853209
2.545000, 0.065889, 0.065986, 99.852321
2.547500, 0.065888, 0.065986, 99.851520
2.550000, 0.065888, 0.065986, 99.850743
2.552500, 0.065887, 0.065986, 99.850025
2.555000, 0.065887, 0.065986, 99.849441
2.557500, 0.065887, 0.065986, 99.848980
2.560000, 0.065886, 0.065986, 99.848613
2.562500, 0.065886, 0.065986, 99.848315
2.565000, 0.065886, 0.065986, 99.848026
2.567500, 0.065886, 0.065986, 99.847731
2.570000, 0.065886, 0.065986, 99.847455
2.572500, 0.065885, 0.065986, 99.847205
2.575000, 0.065885, 0.065986, 99.846970
2.577500, 0.065885, 0.065986, 99.846763
2.580000, 0.065885, 0.065986, 99.846651
2.582500, 0.065885, 0.065986, 99.846658
2.585000, 0.065885, 0.065986, 99.846783
2.587500, 0.065885, 0.065986, 99.846988
2.590000, 0.065885, 0.065986, 99.847281
2.592500, 0.065886, 0.065986, 99.847846
2.595000, 0.065886, 0.065986, 99.848710
2.597500, 0.065887, 0.065986, 99.849928
2.600000, 0.065888, 0.065986, 99.851450
2.602500, 0.065889, 0.065986, 99.852896
2.605000, 0.065890, 0.065986, 99.854469
2.607500, 0.065891, 0.065986, 99.856116
2.610000, 0.065892, 0.065986, 99.857792
2.612500, 0.065894, 0.065986, 99.859450
2.615000, 0.065895, 0.065986, 99.861047
2.617500, 0.065896, 0.065986, 99.862543
2.620000, 0.065896, 0.065986, 99.863901
2.622500, 0.065897, 0.065986, 99.865090
2.625000, 0.065898, 0.065986, 99.866082
2.627500, 0.065898, 0.065986, 99.866861
2.630000, 0.065899, 0.065986, 99.867417
2.632500, 0.065899, 0.065986, 99.867795
2.635000, 0.065899, 0.065986, 99.868023
2.637500, 0.065899, 0.065986, 99.868083
2.640000, 0.065899, 0.065986, 99.867963
2.642500, 0.065899, 0.065986, 99.867651
2.645000, 0.065899, 0.065986, 99.867167
2.647500, 0.065898, 0.065986, 99.866651
2.650000, 0.065898, 0.065986, 99.866133
2.652500, 0.065898, 0.065986, 99.865594
2.655000, 0.065897, 0.065986, 99.865045
2.657500, 0.065897, 0.065986, 99.864486
2.660000, 0.065896, 0.065986, 99.863967
2.662500, 0.065896, 0.065986, 99.863587
2.665000, 0.065896, 0.065986, 99.863326
2.667500, 0.065896, 0.065986, 99.863134
2.670000, 0.065896, 0.065986, 99.862980
2.672500, 0.065896, 0.065986, 99.862842
2.675000, 0.065896, 0.065986, 99.862698
2.677500, 0.065896, 0.065986, 99.862525
2.680000, 0.065895, 0.065986, 99.862304
2.682500, 0.065895, 0.065986, 99.862026
2.685000, 0.065895, 0.065986, 99.861667
2.687500, 0.065895, 0.065986, 99.861209
2.690000, 0.065894, 0.065986, 99.860635
2.692500, 0.065894, 0.065986, 99.859915
2.695000, 0.065893, 0.065986, 99.859055
2.697500, 0.065893, 0.065986, 99.858080
2.700000, 0.065892, 0.065986, 99.856990
2.702500, 0.065891, 0.065986, 99.855791
2.705000, 0.065890, 0.065986, 99.854558
2.707500, 0.065889, 0.065986, 99.853375
2.710000, 0.065889, 0.065986, 99.852326
2.712500, 0.065888, 0.065986, 99.851403
2.715000, 0.065888, 0.065986, 99.850563
2.717500, 0.065887, 0.065986, 99.849747
2.720000, 0.065887, 0.065986, 99.848975
2.722500, 0.065886, 0.065986, 99.848343
2.725000, 0.065886, 0.065986, 99.847839
2.727500, 0.065886, 0.065986, 99.847436
2.730000, 0.065885, 0.065986, 99.847102
2.732500, 0.065885, 0.065986, 99.846781
2.735000, 0.065885, 0.065986, 99.846459
2.737500, 0.065885, 0.065986, 99.846165
2.740000, 0.065885, 0.065986, 99.845904
2.742500, 0.065884, 0.065986, 99.845666
2.745000, 0.065884, 0.065986, 99.845448
2.747500, 0.065884, 0.065986, 99.845321
2.750000, 0.065884, 0.065986, 99.845317
2.752500, 0.065884, 0.065986, 99.845440
2.755000, 0.065884, 0.065986, 99.845652
2.757500, 0.065885, 0.065986, 99.845946
2.760000, 0.065885, 0.065986, 99.846489
2.762500, 0.065886, 0.065986, 99.847338
2.765000, 0.065886, 0.065986, 99.848430
2.767500, 0.065887, 0.065986, 99.849767
2.770000, 0.065888, 0.065986, 99.851286
2.772500, 0.065889, 0.065986, 99.852926
2.775000, 0.065890, 0.065986, 99.854640
2.777500, 0.065891, 0.065986, 99.856381
2.780000, 0.065893, 0.065986, 99.858101
2.782500, 0.065894, 0.065986, 99.859753
2.785000, 0.065895, 0.065986, 99.861303
2.787500, 0.065896, 0.065986, 99.862710
2.790000, 0.065896, 0.065986, 99.863944
2.792500, 0.065897, 0.065986, 99.864983
2.795000, 0.065898, 0.065986, 99.865809
2.797500, 0.065898, 0.065986, 99.866408
2.800000, 0.065898, 0.065986, 99.866816
2.802500, 0.065899, 0.065986, 99.867074
2.805000, 0.065899, 0.065986, 99.867168
2.807500, 0.065899, 0.065986, 99.867085
2.810000, 0.065898, 0.065986, 99.866812
2.812500, 0.065898, 0.065986, 99.866360
2.815000, 0.065898, 0.065986, 99.865863
2.817500, 0.065897, 0.065986, 99.865369
2.820000, 0.065897, 0.065986, 99.864858
2.822500, 0.065897, 0.065986, 99.864339
2.825000, 0.065896, 0.065986, 99.863812
2.827500, 0.065896, 0.065986, 99.863301
2.830000, 0.065896, 0.065986, 99.862923
2.832500, 0.065896, 0.065986, 99.862665
2.835000, 0.065895, 0.065986, 99.862480
2.837500, 0.065895, 0.065986, 99.862337
2.840000, 0.065895, 0.065986, 99.862213
2.842500, 0.065895, 0.065986, 99.862085
2.845000, 0.065895, 0.065986, 99.861932
2.847500, 0.065895, 0.065986, 99.861734
2.850000, 0.065895, 0.065986, 99.861482
2.852500, 0.065895, 0.065986, 99.861150
2.855000, 0.065894, 0.065986, 99.860720
2.857500, 0.065894, 0.065986, 99.860169
2.860000, 0.065894, 0.065986, 99.859467
2.862500, 0.065893, 0.065986, 99.858618
2.865000, 0.065892, 0.065986, 99.857653
2.867500, 0.065892, 0.065986, 99.856574
2.870000, 0.065891, 0.065986, 99.855372
2.872500, 0.065890, 0.065986, 99.854110
2.875000, 0.065889, 0.065986, 99.852876
2.877500, 0.065888, 0.065986, 99.851775
2.880000, 0.065888, 0.065986, 99.850806
2.882500, 0.065887, 0.065986, 99.849927
2.885000, 0.065887, 0.065986, 99.849080
2.887500, 0.065886, 0.065986, 99.848264
2.890000, 0.065886, 0.065986, 99.847580
2.892500, 0.065885, 0.065986, 99.847034
2.895000, 0.065885, 0.065986, 99.846598
2.897500, 0.065885, 0.065986, 99.846242
2.900000, 0.065885, 0.065986, 99.845908
2.902500, 0.065884, 0.065986, 99.845575
2.905000, 0.065884, 0.065986, 99.845274
2.907500, 0.065884, 0.065986, 99.845014
2.910000, 0.065884, 0.065986, 99.844784
2.912500, 0.065884, 0.065986, 99.844571
2.915000, 0.065884, 0.065986, 99.844435
2.917500, 0.065884, 0.065986, 99.844418
2.920000, 0.065884, 0.065986, 99.844537
2.922500, 0.065884, 0.065986, 99.844757
2.925000, 0.065884, 0.065986, 99.845026
2.927500, 0.065884, 0.065986, 99.845472
2.930000, 0.065885, 0.065986, 99.846312
2.932500, 0.065886, 0.065986, 99.847410
2.935000, 0.065886, 0.065986, 99.848733
2.937500, 0.065887, 0.065986, 99.850257
2.940000, 0.065889, 0.065986, 99.851897
2.942500, 0.065890, 0.065986, 99.853611
2.945000, 0.065891, 0.065986, 99.855367
2.947500, 0.065892, 0.065986, 99.857109
2.950000, 0.065893, 0.065986, 99.858788
2.952500, 0.065894, 0.065986, 99.860375
2.955000, 0.065895, 0.065986, 99.861821
2.957500, 0.065896, 0.065986, 99.863099
2.960000, 0.065897, 0.065986, 99.864183
2.962500, 0.065897, 0.065986, 99.865059
2.965000, 0.065898, 0.065986, 99.865696
2.967500, 0.065898, 0.065986, 99.866129
2.970000, 0.065898, 0.065986, 99.866412
2.972500, 0.065898, 0.065986, 99.866529
2.975000, 0.065898, 0.065986, 99.866499
2.977500, 0.065898, 0.065986, 99.866270
2.980000, 0.065898, 0.065986, 99.865863
2.982500, 0.065897, 0.065986, 99.865369
2.985000, 0.065897, 0.065986, 99.864881
2.987500, 0.065897, 0.065986, 99.864379
2.990000, 0.065896, 0.065986, 99.863869
2.992500, 0.065896, 0.065986, 99.863353
2.995000, 0.065896, 0.065986, 99.862832
2.997500, 0.065895, 0.065986, 99.862417
3.000000, 0.065895, 0.065986, 99.862125
3.002500, 0.065895, 0.065986, 99.861912
3.005000, 0.065895, 0.065986, 99.861757
3.007500, 0.065895, 0.065986, 99.861669
3.010000, 0.065895, 0.065986, 99.861600
3.012500, 0.065895, 0.065986, 99.861437
3.015000, 0.065895, 0.065986, 99.861278
3.017500, 0.065895, 0.065986, 99.861063
3.020000, 0.065894, 0.065986, 99.860762
3.022500, 0.065894, 0.065986, 99.860350
3.025000, 0.065894, 0.065986, 99.859848
3.027500, 0.065893, 0.065986, 99.859196
3.030000, 0.065893, 0.065986, 99.858364
3.032500, 0.065892, 0.065986, 99.857426
3.035000, 0.065891, 0.065986, 99.856359
3.037500, 0.065891, 0.065986, 99.855203
3.040000, 0.065890, 0.065986, 99.853898
3.042500, 0.065889, 0.065986, 99.852621
3.045000, 0.065888, 0.065986, 99.851395
3.047500, 0.065887, 0.065986, 99.850300
3.050000, 0.065887, 0.065986, 99.849340
3.052500, 0.065886, 0.065986, 99.848421
3.055000, 0.065886, 0.065986, 99.847526
3.057500, 0.065885, 0.065986, 99.846707
3.060000, 0.065885, 0.065986, 99.846042
3.062500, 0.065884, 0.065986, 99.845507
3.065000, 0.065884, 0.065986, 99.845253
3.067500, 0.065884, 0.065986, 99.844902
3.070000, 0.065884, 0.065986, 99.844549
3.072500, 0.065883, 0.065986, 99.844189
3.075000, 0.065883, 0.065986, 99.843713
3.077500, 0.065883, 0.065986, 99.843471
3.080000, 0.065883, 0.065986, 99.843288
3.082500, 0.065883, 0.065986, 99.843129
3.085000, 0.065883, 0.065986, 99.843078
3.087500, 0.065883, 0.065986, 99.843169
3.090000, 0.065883, 0.065986, 99.843538
3.092500, 0.065883, 0.065986, 99.843844
3.095000, 0.065883, 0.065986, 99.844229
3.097500, 0.065884, 0.065986, 99.844886
3.100000, 0.065884, 0.065986, 99.845806
3.102500, 0.065885, 0.065986, 99.846978
3.105000, 0.065886, 0.065986, 99.848380
3.107500, 0.065887, 0.065986, 99.849955
3.110000, 0.065888, 0.065986, 99.851646
3.112500, 0.065890, 0.065986, 99.853409
3.115000, 0.065891, 0.065986, 99.855192
3.117500, 0.065892, 0.065986, 99.856928
3.120000, 0.065893, 0.065986, 99.858591
3.122500, 0.065894, 0.065986, 99.860134
3.125000, 0.065895, 0.065986, 99.861526
3.127500, 0.065896, 0.065986, 99.862740
3.130000, 0.065896, 0.065986, 99.863757
3.132500, 0.065897, 0.065986, 99.864560
3.135000, 0.065897, 0.065986, 99.865134
3.137500, 0.065898, 0.065986, 99.865519
3.140000, 0.065898, 0.065986, 99.865758
3.142500, 0.065898, 0.065986, 99.865837
3.145000, 0.065898, 0.065986, 99.865741
3.147500, 0.065897, 0.065986, 99.865458
3.150000, 0.065897, 0.065986, 99.865018
3.152500, 0.065897, 0.065986, 99.864556
3.155000, 0.065897, 0.065986, 99.864096
3.157500, 0.065896, 0.065986, 99.863647
3.160000, 0.065896, 0.065986, 99.863187
3.162500, 0.065896, 0.065986, 99.862720
3.165000, 0.065895, 0.065986, 99.862267
3.167500, 0.065895, 0.065986, 99.861942
3.170000, 0.065895, 0.065986, 99.861717
3.172500, 0.065895, 0.065986, 99.861559
3.175000, 0.065895, 0.065986, 99.861437
3.177500, 0.065895, 0.065986, 99.861331
3.180000, 0.065895, 0.065986, 99.861222
3.182500, 0.065895, 0.065986, 99.861084
3.185000, 0.065894, 0.065986, 99.860908
3.187500, 0.065894, 0.065986, 99.860670
3.190000, 0.065894, 0.065986, 99.860346
3.192500, 0.065894, 0.065986, 99.859914
3.195000, 0.065893, 0.065986, 99.859353
3.197500, 0.065893, 0.065986, 99.858630
3.200000, 0.065892, 0.065986, 99.857751
3.202500, 0.065892, 0.065986, 99.856757
3.205000, 0.065891, 0.065986, 99.855645
3.207500, 0.065890, 0.065986, 99.854391
3.210000, 0.065889, 0.065986, 99.853067
3.212500, 0.065888, 0.065986, 99.851749
3.215000, 0.065888, 0.065986, 99.850533
3.217500, 0.065887, 0.065986, 99.849452
3.220000, 0.065886, 0.065986, 99.848462
3.222500, 0.065886, 0.065986, 99.847515
3.225000, 0.065885, 0.065986, 99.846599
3.227500, 0.065884, 0.065986, 99.845785
3.230000, 0.065884, 0.065986, 99.845126
3.232500, 0.065884, 0.065986, 99.844596
3.235000, 0.065883, 0.065986, 99.844162
3.237500, 0.065883, 0.065986, 99.843764
3.240000, 0.065883, 0.065986, 99.843404
3.242500, 0.065883, 0.065986, 99.843106
3.245000, 0.065883, 0.065986, 99.842871
3.247500, 0.065882, 0.065986, 99.842684
3.250000, 0.065882, 0.065986, 99.842517
3.252500, 0.065882, 0.065986, 99.842387
3.255000, 0.065882, 0.065986, 99.842379
3.257500, 0.065882, 0.065986, 99.842520
3.260000, 0.065882, 0.065986, 99.842778
3.262500, 0.065883, 0.065986, 99.843133
3.265000, 0.065883, 0.065986, 99.843632
3.267500, 0.065884, 0.065986, 99.844394
3.270000, 0.065884, 0.065986, 99.845390
3.272500, 0.065885, 0.065986, 99.846630
3.275000, 0.065886, 0.065986, 99.848085
3.277500, 0.065887, 0.065986, 99.849698
3.280000, 0.065888, 0.065986, 99.851417
3.282500, 0.065889, 0.065986, 99.853207
3.285000, 0.065891, 0.065986, 99.855002
3.287500, 0.065892, 0.065986, 99.856737
3.290000, 0.065893, 0.065986, 99.858385
3.292500, 0.065894, 0.065986, 99.859906
3.295000, 0.065895, 0.065986, 99.861269
3.297500, 0.065895, 0.065986, 99.862454
3.300000, 0.065896, 0.065986, 99.863442
3.302500, 0.065897, 0.065986, 99.864215
3.305000, 0.065897, 0.065986, 99.864760
3.307500, 0.065897, 0.065986, 99.865125
3.310000, 0.065897, 0.065986, 99.865347
3.312500, 0.065897, 0.065986, 99.865403
3.315000, 0.065897, 0.065986, 99.865287
3.317500, 0.065897, 0.065986, 99.864987
3.320000, 0.065897, 0.065986, 99.864556
3.322500, 0.065897, 0.065986, 99.864116
3.325000, 0.065896, 0.065986, 99.863681
3.327500, 0.065896, 0.065986, 99.863261
3.330000, 0.065896, 0.065986, 99.862847
3.332500, 0.065895, 0.065986, 99.862421
3.335000, 0.065895, 0.065986, 99.862022
3.337500, 0.065895, 0.065986, 99.861746
3.340000, 0.065895, 0.065986, 99.861559
3.342500, 0.065895, 0.065986, 99.861433
3.345000, 0.065895, 0.065986, 99.861342
3.347500, 0.065895, 0.065986, 99.861264
3.350000, 0.065895, 0.065986, 99.861178
3.352500, 0.065895, 0.065986, 99.861063
3.355000, 0.065894, 0.065986, 99.860910
3.357500, 0.065894, 0.065986, 99.860691
3.360000, 0.065894, 0.065986, 99.860382
3.362500, 0.065894, 0.065986, 99.859949
3.365000, 0.065893, 0.065986, 99.859370
3.367500, 0.065893, 0.065986, 99.858641
3.370000, 0.065892, 0.065986, 99.857759
3.372500, 0.065892, 0.065986, 99.856733
3.375000, 0.065891, 0.065986, 99.855584
3.377500, 0.065890, 0.065986, 99.854286
3.380000, 0.065889, 0.065986, 99.852918
3.382500, 0.065888, 0.065986, 99.851550
3.385000, 0.065887, 0.065986, 99.850179
3.387500, 0.065887, 0.065986, 99.848889
3.390000, 0.065886, 0.065986, 99.847705
3.392500, 0.065885, 0.065986, 99.846582
3.395000, 0.065884, 0.065986, 99.845503
3.397500, 0.065884, 0.065986, 99.844460
3.400000, 0.065883, 0.065986, 99.843516
3.402500, 0.065882, 0.065986, 99.842720
3.405000, 0.065882, 0.065986, 99.842043
3.407500, 0.065882, 0.065986, 99.841444
3.410000, 0.065881, 0.065986, 99.840931
3.412500, 0.065881, 0.065986, 99.840515
3.415000, 0.065881, 0.065986, 99.840199
3.417500, 0.065881, 0.065986, 99.839964
3.420000, 0.065881, 0.065986, 99.839783
3.422500, 0.065880, 0.065986, 99.839635
3.425000, 0.065880, 0.065986, 99.839543
3.427500, 0.065880, 0.065986, 99.839622
3.430000, 0.065881, 0.065986, 99.839861
3.432500, 0.065881, 0.065986, 99.840403
3.435000, 0.065881, 0.065986, 99.840918
3.437500, 0.065882, 0.065986, 99.841537
3.440000, 0.065882, 0.065986, 99.842353
3.442500, 0.065883, 0.065986, 99.843444
3.445000, 0.065884, 0.065986, 99.844789
3.447500, 0.065885, 0.065986, 99.846333
3.450000, 0.065886, 0.065986, 99.848033
3.452500, 0.065887, 0.065986, 99.849852
3.455000, 0.065888, 0.065986, 99.851724
3.457500, 0.065890, 0.065986, 99.853569
3.460000, 0.065891, 0.065986, 99.855357
3.462500, 0.065892, 0.065986, 99.857044
3.465000, 0.065893, 0.065986, 99.858601
3.467500, 0.065894, 0.065986, 99.860003
3.470000, 0.065895, 0.065986, 99.861229
3.472500, 0.065895, 0.065986, 99.862260
3.475000, 0.065896, 0.065986, 99.863076
3.477500, 0.065896, 0.065986, 99.863668
3.480000, 0.065897, 0.065986, 99.864068
3.482500, 0.065897, 0.065986, 99.864317
3.485000, 0.065897, 0.065986, 99.864408
3.487500, 0.065897, 0.065986, 99.864329
3.490000, 0.065897, 0.065986, 99.864110
3.492500, 0.065896, 0.065986, 99.863813
3.495000, 0.065896, 0.065986, 99.863506
3.497500, 0.065896, 0.065986, 99.863239
3.500000, 0.065896, 0.065986, 99.862990
3.502500, 0.065896, 0.065986, 99.862744
3.505000, 0.065896, 0.065986, 99.862484
3.507500, 0.065895, 0.065986, 99.862210
3.510000, 0.065895, 0.065986, 99.862003
3.512500, 0.065895, 0.065986, 99.861874
3.515000, 0.065895, 0.065986, 99.861796
3.517500, 0.065895, 0.065986, 99.861746
3.520000, 0.065895, 0.065986, 99.861702
3.522500, 0.065895, 0.065986, 99.861654
3.525000, 0.065895, 0.065986, 99.861606
3.527500, 0.065895, 0.065986, 99.861491
3.530000, 0.065895, 0.065986, 99.861287
3.532500, 0.065895, 0.065986, 99.860968
3.535000, 0.065894, 0.065986, 99.860510
3.537500, 0.065894, 0.065986, 99.859912
3.540000, 0.065893, 0.065986, 99.859171
3.542500, 0.065893, 0.065986, 99.858285
3.545000, 0.065892, 0.065986, 99.857253
3.547500, 0.065891, 0.065986, 99.856033
3.550000, 0.065890, 0.065986, 99.854637
3.552500, 0.065889, 0.065986, 99.853171
3.555000, 0.065888, 0.065986, 99.851708
3.557500, 0.065887, 0.065986, 99.850223
3.560000, 0.065886, 0.065986, 99.848744
3.562500, 0.065886, 0.065986, 99.847379
3.565000, 0.065885, 0.065986, 99.846114
3.567500, 0.065884, 0.065986, 99.844909
3.570000, 0.065883, 0.065986, 99.843742
3.572500, 0.065882, 0.065986, 99.842613
3.575000, 0.065882, 0.065986, 99.841609
3.577500, 0.065881, 0.065986, 99.840751
3.580000, 0.065881, 0.065986, 99.840060
3.582500, 0.065880, 0.065986, 99.839526
3.585000, 0.065880, 0.065986, 99.839139
3.587500, 0.065880, 0.065986, 99.838877
3.590000, 0.065880, 0.065986, 99.838713
3.592500, 0.065880, 0.065986, 99.838635
3.595000, 0.065880, 0.065986, 99.838644
3.597500, 0.065880, 0.065986, 99.838605
3.600000, 0.065880, 0.065986, 99.838648
3.602500, 0.065880, 0.065986, 99.838879
3.605000, 0.065880, 0.065986, 99.839313
3.607500, 0.065881, 0.065986, 99.839896
3.610000, 0.065881, 0.065986, 99.840546
3.612500, 0.065881, 0.065986, 99.841242
3.615000, 0.065882, 0.065986, 99.842140
3.617500, 0.065883, 0.065986, 99.843313
3.620000, 0.065884, 0.065986, 99.844731
3.622500, 0.065885, 0.065986, 99.846343
3.625000, 0.065886, 0.065986, 99.848095
3.627500, 0.065887, 0.065986, 99.849926
3.630000, 0.065888, 0.065986, 99.851791
3.632500, 0.065890, 0.065986, 99.853640
3.635000, 0.065891, 0.065986, 99.855413
3.637500, 0.065892, 0.065986, 99.857085
3.640000, 0.065893, 0.065986, 99.858626
3.642500, 0.065894, 0.065986, 99.860016
3.645000, 0.065895, 0.065986, 99.861229
3.647500, 0.065895, 0.065986, 99.862249
3.650000, 0.065896, 0.065986, 99.863056
3.652500, 0.065896, 0.065986, 99.863639
3.655000, 0.065897, 0.065986, 99.864011
3.657500, 0.065897, 0.065986, 99.864229
3.660000, 0.065897, 0.065986, 99.864289
3.662500, 0.065897, 0.065986, 99.864196
3.665000, 0.065897, 0.065986, 99.864051
3.667500, 0.065896, 0.065986, 99.863899
3.670000, 0.065896, 0.065986, 99.863705
3.672500, 0.065896, 0.065986, 99.863545
3.675000, 0.065896, 0.065986, 99.863404
3.677500, 0.065896, 0.065986, 99.863268
3.680000, 0.065896, 0.065986, 99.863108
3.682500, 0.065896, 0.065986, 99.862903
3.685000, 0.065896, 0.065986, 99.862702
3.687500, 0.065896, 0.065986, 99.862572
3.690000, 0.065896, 0.065986, 99.862492
3.692500, 0.065895, 0.065986, 99.862438
3.695000, 0.065895, 0.065986, 99.862401
3.697500, 0.065895, 0.065986, 99.862360
3.700000, 0.065895, 0.065986, 99.862304
3.702500, 0.065895, 0.065986, 99.862208
3.705000, 0.065895, 0.065986, 99.862024
3.707500, 0.065895, 0.065986, 99.861752
3.710000, 0.065895, 0.065986, 99.861333
3.712500, 0.065894, 0.065986, 99.860788
3.715000, 0.065894, 0.065986, 99.860115
3.717500, 0.065893, 0.065986, 99.859307
3.720000, 0.065893, 0.065986, 99.858365
3.722500, 0.065892, 0.065986, 99.857282
3.725000, 0.065891, 0.065986, 99.856027
3.727500, 0.065890, 0.065986, 99.854575
3.730000, 0.065889, 0.065986, 99.852994
3.732500, 0.065888, 0.065986, 99.851371
3.735000, 0.065887, 0.065986, 99.849708
3.737500, 0.065886, 0.065986, 99.848002
3.740000, 0.065885, 0.065986, 99.846263
3.742500, 0.065884, 0.065986, 99.844507
3.745000, 0.065882, 0.065986, 99.842702
3.747500, 0.065881, 0.065986, 99.840836
3.750000, 0.065880, 0.065986, 99.838906
3.752500, 0.065879, 0.065986, 99.836990
3.755000, 0.065878, 0.065986, 99.835212
3.757500, 0.065876, 0.065986, 99.833595
3.760000, 0.065875, 0.065986, 99.832133
3.762500, 0.065875, 0.065986, 99.830793
3.765000, 0.065874, 0.065986, 99.829588
3.767500, 0.065873, 0.065986, 99.828575
3.770000, 0.065873, 0.065986, 99.827748
3.772500, 0.065872, 0.065986, 99.827087
3.775000, 0.065872, 0.065986, 99.826589
3.777500, 0.065872, 0.065986, 99.826309
3.780000, 0.065872, 0.065986, 99.826251
3.782500, 0.065872, 0.065986, 99.826368
3.785000, 0.065872, 0.065986, 99.826616
3.787500, 0.065872, 0.065986, 99.826951
3.790000, 0.065872, 0.065986, 99.827362
3.792500, 0.065873, 0.065986, 99.827935
3.795000, 0.065873, 0.065986, 99.828727
3.797500, 0.065874, 0.065986, 99.829677
3.800000, 0.065875, 0.065986, 99.830724
3.802500, 0.065875, 0.065986, 99.831843
3.805000, 0.065876, 0.065986, 99.833108
3.807500, 0.065877, 0.065986, 99.834568
3.810000, 0.065878, 0.065986, 99.836230
3.812500, 0.065879, 0.065986, 99.838049
3.815000, 0.065881, 0.065986, 99.839937
3.817500, 0.065882, 0.065986, 99.841846
3.820000, 0.065883, 0.065986, 99.843736
3.822500, 0.065884, 0.065986, 99.845577
3.825000, 0.065886, 0.065986, 99.847337
3.827500, 0.065887, 0.065986, 99.848994
3.830000, 0.065888, 0.065986, 99.850526
3.832500, 0.065889, 0.065986, 99.851914
3.835000, 0.065889, 0.065986, 99.853162
3.837500, 0.065890, 0.065986, 99.854286
3.840000, 0.065891, 0.065986, 99.855278
3.842500, 0.065891, 0.065986, 99.856198
3.845000, 0.065892, 0.065986, 99.857074
3.847500, 0.065893, 0.065986, 99.857943
3.850000, 0.065893, 0.065986, 99.858812
3.852500, 0.065894, 0.065986, 99.859665
3.855000, 0.065894, 0.065986, 99.860482
3.857500, 0.065895, 0.065986, 99.861235
3.860000, 0.065895, 0.065986, 99.861919
3.862500, 0.065896, 0.065986, 99.862574
3.865000, 0.065896, 0.065986, 99.863203
3.867500, 0.065896, 0.065986, 99.863784
3.870000, 0.065897, 0.065986, 99.864290
3.872500, 0.065897, 0.065986, 99.864709
3.875000, 0.065897, 0.065986, 99.865050
3.877500, 0.065897, 0.065986, 99.865398
3.880000, 0.065898, 0.065986, 99.865744
3.882500, 0.065898, 0.065986, 99.866051
3.885000, 0.065898, 0.065986, 99.866307
3.887500, 0.065898, 0.065986, 99.866486
3.890000, 0.065898, 0.065986, 99.866563
3.892500, 0.065898, 0.065986, 99.866529
3.895000, 0.065898, 0.065986, 99.866383
3.897500, 0.065898, 0.065986, 99.866131
3.900000, 0.065898, 0.065986, 99.865770
3.902500, 0.065897, 0.065986, 99.865285
3.905000, 0.065897, 0.065986, 99.864661
3.907500, 0.065896, 0.065986, 99.863878
3.910000, 0.065896, 0.065986, 99.862914
3.912500, 0.065895, 0.065986, 99.861768
3.915000, 0.065894, 0.065986, 99.860442
3.917500, 0.065893, 0.065986, 99.858943
3.920000, 0.065892, 0.065986, 99.857291
3.922500, 0.065891, 0.065986, 99.855567
3.925000, 0.065890, 0.065986, 99.853824
3.927500, 0.065889, 0.065986, 99.852064
3.930000, 0.065887, 0.065986, 99.850320
3.932500, 0.065886, 0.065986, 99.848646
3.935000, 0.065885, 0.065986, 99.847104
3.937500, 0.065884, 0.065986, 99.845715
3.940000, 0.065884, 0.065986, 99.844466
3.942500, 0.065883, 0.065986, 99.843336
3.945000, 0.065882, 0.065986, 99.842319
3.947500, 0.065882, 0.065986, 99.841398
3.950000, 0.065881, 0.065986, 99.840597
3.952500, 0.065881, 0.065986, 99.839953
3.955000, 0.065880, 0.065986, 99.839477
3.957500, 0.065880, 0.065986, 99.839138
3.960000, 0.065880, 0.065986, 99.838919
3.962500, 0.065880, 0.065986, 99.838804
3.965000, 0.065880, 0.065986, 99.838778
3.967500, 0.065880, 0.065986, 99.838813
3.970000, 0.065880, 0.065986, 99.838872
3.972500, 0.065880, 0.065986, 99.838937
3.975000, 0.065880, 0.065986, 99.838989
3.977500, 0.065880, 0.065986, 99.839034
3.980000, 0.065880, 0.065986, 99.839033
3.982500, 0.065880, 0.065986, 99.838980
3.985000, 0.065880, 0.065986, 99.838922
3.987500, 0.065880, 0.065986, 99.838965
3.990000, 0.065880, 0.065986, 99.839090
3.992500, 0.065880, 0.065986, 99.839280
3.995000, 0.065880, 0.065986, 99.839511
3.997500, 0.065881, 0.065986, 99.839764
4.000000, 0.065881, 0.065986, 99.840077
4.002500, 0.065881, 0.065986, 99.840533
